timestamps,TP9,AF7,AF8,TP10,Right AUX,Marker0
1539624106.219,62.012,43.945,41.992,49.316,-12.207,1
1539624106.223,60.059,40.039,46.387,45.410,-24.414,0
1539624106.227,52.246,41.992,48.340,44.922,38.086,0
1539624106.230,42.969,42.480,49.316,48.340,17.090,0
1539624106.234,37.598,36.133,44.434,42.480,14.648,0
1539624106.238,40.039,37.109,48.340,42.480,42.969,0
1539624106.242,43.945,42.480,46.387,43.945,43.945,0
1539624106.246,41.016,44.434,39.551,43.457,14.648,0
1539624106.250,34.668,35.645,41.992,39.551,2.441,0
1539624106.254,31.738,27.832,42.969,32.715,22.461,0
1539624106.258,31.738,32.715,46.387,34.180,68.359,0
1539624106.262,34.668,39.551,47.363,38.086,65.430,0
1539624106.266,36.621,37.598,49.316,37.109,-37.598,0
1539624106.270,34.180,37.598,51.758,40.039,-11.230,0
1539624106.273,34.180,42.480,44.922,40.527,71.289,0
1539624106.277,30.273,39.062,42.480,39.551,75.195,0
1539624106.281,36.133,32.715,45.898,39.551,62.500,0
1539624106.285,36.621,31.250,44.922,37.598,46.387,0
1539624106.289,43.457,38.086,40.527,39.062,76.660,0
1539624106.293,45.410,42.969,39.062,37.109,69.336,0
1539624106.297,34.668,38.086,40.039,33.203,-31.738,0
1539624106.301,35.156,40.527,39.062,37.109,18.066,0
1539624106.305,33.691,45.410,39.551,39.062,96.680,0
1539624106.309,35.645,44.434,37.598,34.668,57.129,0
1539624106.313,34.668,43.945,34.180,30.762,25.879,0
1539624106.316,38.574,41.016,33.691,33.203,39.062,0
1539624106.320,34.180,39.551,35.156,40.527,36.133,0
1539624106.324,25.391,43.457,27.344,38.574,20.020,0
1539624106.328,24.414,40.039,29.785,29.785,39.551,0
1539624106.332,24.414,37.109,42.480,30.273,25.391,0
1539624106.336,27.832,38.086,43.457,37.109,-2.930,0
1539624106.340,25.879,31.738,43.945,35.645,31.738,0
1539624106.344,23.438,27.832,40.527,23.926,60.547,0
1539624106.348,23.926,31.250,37.109,16.602,53.711,0
1539624106.352,24.414,29.785,40.527,20.020,63.965,0
1539624106.355,27.832,31.738,44.434,22.461,49.805,0
1539624106.359,28.809,38.086,45.410,20.996,47.852,0
1539624106.363,25.391,32.227,43.945,19.531,11.230,0
1539624106.367,25.391,29.297,44.434,21.973,3.906,0
1539624106.371,22.461,32.715,42.480,22.949,17.578,0
1539624106.375,18.066,29.297,43.457,24.902,-27.832,0
1539624106.379,28.809,32.227,38.086,29.297,-3.418,0
1539624106.383,23.438,35.645,31.738,26.855,36.621,0
1539624106.387,10.742,28.320,43.945,23.438,104.492,0
1539624106.391,38.574,31.738,43.457,31.738,97.656,0
1539624106.395,62.988,37.598,45.898,48.340,20.508,0
1539624106.398,26.367,31.738,61.035,31.738,-5.859,0
1539624106.402,0.000,31.250,54.199,14.160,16.602,0
1539624106.406,30.762,33.203,44.922,37.598,22.949,0
1539624106.410,45.898,33.691,41.504,44.922,31.250,0
1539624106.414,35.645,33.691,40.039,34.180,94.238,0
1539624106.418,41.016,30.273,48.340,45.898,82.520,0
1539624106.422,32.227,29.785,50.293,41.992,40.527,0
1539624106.426,27.344,37.598,47.363,30.273,22.949,0
1539624106.430,44.922,41.504,51.270,42.480,19.043,0
1539624106.434,41.016,40.039,52.246,48.828,31.250,0
1539624106.438,32.715,35.156,50.781,46.875,67.871,0
1539624106.441,39.551,31.738,45.898,48.828,57.129,0
1539624106.445,44.922,34.668,45.898,45.410,36.133,0
1539624106.449,44.922,35.156,48.340,42.969,69.824,0
1539624106.453,39.062,36.133,43.945,47.852,41.504,0
1539624106.457,38.574,36.621,43.457,45.410,-6.348,0
1539624106.461,40.527,38.086,44.434,43.945,20.020,0
1539624106.465,39.551,42.480,41.016,42.969,44.434,0
1539624106.469,44.922,41.992,35.645,39.551,-19.531,0
1539624106.473,44.922,39.551,37.109,42.969,12.207,0
1539624106.477,49.316,40.527,37.598,33.691,43.945,0
1539624106.480,42.969,39.062,32.227,29.297,4.395,0
1539624106.484,41.016,43.457,40.039,34.180,22.949,0
1539624106.488,52.246,49.805,43.945,33.691,31.250,0
1539624106.492,48.828,51.270,44.434,35.156,48.340,0
1539624106.496,49.316,48.340,42.969,40.527,64.453,0
1539624106.500,45.410,41.504,39.551,40.039,104.004,0
1539624106.504,41.016,34.180,42.480,37.109,124.023,0
1539624106.508,43.945,33.691,42.969,40.039,56.641,0
1539624106.512,43.945,35.645,43.945,44.434,11.230,0
1539624106.516,42.969,36.133,46.387,43.457,9.277,0
1539624106.520,41.504,39.062,46.875,39.062,57.129,0
1539624106.523,36.133,38.086,46.875,38.086,102.051,0
1539624106.527,38.574,42.480,46.387,38.574,45.898,0
1539624106.531,43.945,46.875,42.969,33.203,41.992,0
1539624106.535,37.598,42.969,39.551,28.320,50.781,0
1539624106.539,29.785,37.598,38.086,22.461,10.254,0
1539624106.543,30.762,35.156,32.715,16.113,59.082,0
1539624106.547,42.480,41.016,26.367,18.066,99.121,0
1539624106.551,39.062,45.410,31.738,20.996,58.594,0
1539624106.555,32.227,44.434,32.227,23.926,-5.859,0
1539624106.559,36.133,43.457,29.297,28.320,-1.953,0
1539624106.563,29.297,43.457,39.062,27.344,19.043,0
1539624106.566,28.809,38.574,47.363,27.832,25.391,0
1539624106.570,36.621,35.645,51.270,33.203,50.293,0
1539624106.574,36.621,36.133,54.688,33.691,41.992,0
1539624106.578,34.668,35.156,45.898,25.879,42.480,0
1539624106.582,35.645,35.645,36.621,27.344,25.391,0
1539624106.586,35.156,39.062,34.668,33.203,1.465,0
1539624106.590,31.738,40.039,35.156,28.320,34.668,0
1539624106.594,27.344,38.086,40.527,20.508,21.973,0
1539624106.598,23.926,39.551,39.551,19.531,-58.105,0
1539624106.602,20.996,38.574,36.133,23.926,-9.766,0
1539624106.605,19.531,31.250,36.621,24.902,47.363,0
1539624106.609,24.414,27.832,41.016,29.785,19.043,0
1539624106.613,35.645,43.457,41.504,41.016,31.250,0
1539624106.617,27.344,53.711,40.527,28.809,76.172,0
1539624106.621,14.160,43.945,39.551,4.883,81.055,0
1539624106.625,20.020,40.527,34.668,5.859,9.766,0
1539624106.629,22.461,42.969,33.203,18.066,-3.906,0
1539624106.633,15.625,47.852,31.738,20.508,58.594,0
1539624106.637,11.719,48.340,29.785,20.508,39.062,0
1539624106.641,12.207,42.969,31.738,17.090,2.930,0
1539624106.645,18.555,40.039,29.785,16.602,-11.719,0
1539624106.648,26.855,42.480,25.391,13.184,12.207,0
1539624106.652,26.855,44.434,27.832,10.742,50.293,0
1539624106.656,28.320,46.387,30.273,14.160,49.316,0
1539624106.660,29.297,49.805,26.367,11.230,16.113,0
1539624106.664,22.461,47.363,24.414,15.137,0.977,0
1539624106.668,22.949,46.875,23.438,22.949,44.922,0
1539624106.672,22.461,41.992,24.414,18.555,28.320,0
1539624106.676,15.625,38.086,27.832,11.719,-7.812,0
1539624106.680,11.719,40.527,27.832,8.301,40.527,0
1539624106.684,10.742,37.109,25.879,7.324,12.695,0
1539624106.688,7.812,34.180,25.391,11.230,15.137,0
1539624106.691,14.160,39.551,25.879,18.066,42.480,0
1539624106.695,21.484,38.086,26.855,20.996,31.250,0
1539624106.699,18.555,34.180,27.832,24.902,62.988,0
1539624106.703,17.578,37.598,31.738,25.879,54.688,0
1539624106.707,15.137,41.504,38.086,30.273,-2.441,0
1539624106.711,16.602,39.551,40.527,32.715,-18.066,0
1539624106.715,17.090,31.738,28.809,24.902,11.719,0
1539624106.719,16.113,34.180,24.902,23.438,34.180,0
1539624106.723,26.367,36.621,36.621,28.809,24.414,0
1539624106.727,28.809,32.715,36.621,28.809,48.340,0
1539624106.730,15.137,34.668,34.180,28.809,101.562,0
1539624106.734,14.648,33.203,37.598,30.762,46.387,0
1539624106.738,20.020,34.180,35.645,23.926,-12.695,0
1539624106.742,14.648,33.691,31.738,15.625,8.301,0
1539624106.746,13.184,32.227,32.227,13.184,-18.555,0
1539624106.750,18.555,36.133,31.250,10.742,40.039,0
1539624106.754,17.578,35.156,27.344,10.254,79.102,0
1539624106.758,19.043,33.691,28.320,10.742,28.809,0
1539624106.762,26.367,38.086,34.180,14.648,-19.531,0
1539624106.766,17.578,37.598,31.738,16.602,6.348,0
1539624106.770,14.648,37.598,28.809,20.508,43.457,0
1539624106.773,23.438,39.551,33.203,22.949,61.035,0
1539624106.777,22.949,38.086,31.738,22.949,59.082,0
1539624106.781,24.902,41.016,29.785,20.020,14.160,0
1539624106.785,26.855,39.062,33.691,19.531,7.324,0
1539624106.789,28.809,34.180,38.086,21.484,-10.742,0
1539624106.793,31.738,35.645,34.668,23.438,-18.066,0
1539624106.797,24.902,37.109,34.180,26.367,-12.695,0
1539624106.801,28.320,43.945,28.320,27.344,18.066,0
1539624106.805,30.273,41.992,25.391,25.879,69.336,0
1539624106.809,29.297,34.668,35.156,24.414,57.617,0
1539624106.813,38.086,38.574,33.203,29.785,21.973,0
1539624106.816,39.551,41.992,27.344,30.273,-24.414,0
1539624106.820,35.645,37.109,25.391,21.484,32.715,0
1539624106.824,28.809,33.691,25.391,15.137,94.727,0
1539624106.828,30.273,32.715,26.367,14.160,74.219,0
1539624106.832,35.156,32.227,29.785,20.996,52.734,0
1539624106.836,32.227,34.668,34.180,23.926,20.020,0
1539624106.840,24.902,37.598,29.785,11.230,36.133,0
1539624106.844,21.484,38.086,26.855,10.254,24.902,0
1539624106.848,27.344,35.156,31.250,22.949,13.184,0
1539624106.852,26.367,36.621,39.551,23.438,50.293,0
1539624106.855,18.555,38.086,36.133,20.996,17.578,0
1539624106.859,20.508,38.086,23.926,19.531,58.594,0
1539624106.863,24.414,32.715,30.273,12.695,40.039,0
1539624106.867,25.879,25.879,33.203,7.812,-21.973,0
1539624106.871,29.297,31.738,31.250,18.555,-11.230,0
1539624106.875,34.668,31.250,32.227,27.832,64.453,0
1539624106.879,31.250,27.344,32.715,23.926,96.680,0
1539624106.883,24.902,30.762,38.086,21.973,26.367,0
1539624106.887,32.227,38.574,37.109,28.809,-39.551,0
1539624106.891,41.016,42.969,37.109,32.715,36.133,0
1539624106.895,34.180,39.062,34.668,37.109,74.219,0
1539624106.898,25.879,37.598,36.621,32.715,-2.441,0
1539624106.902,23.926,41.016,35.645,23.438,35.645,0
1539624106.906,20.508,40.527,31.250,21.973,23.926,0
1539624106.910,20.020,40.527,41.504,17.090,16.602,0
1539624106.914,13.672,47.363,41.504,9.766,-2.930,0
1539624106.918,5.371,44.434,31.250,8.789,10.742,0
1539624106.922,12.695,30.762,28.320,4.883,26.367,0
1539624106.926,19.043,25.879,31.250,0.488,19.043,0
1539624106.930,23.438,29.297,33.203,9.766,5.371,0
1539624106.934,32.227,34.180,35.156,20.020,32.715,0
1539624106.938,24.414,34.180,34.668,20.996,69.824,0
1539624106.941,10.254,33.691,27.344,17.090,37.598,0
1539624106.945,8.789,35.156,36.621,16.113,46.387,0
1539624106.949,18.555,37.109,36.621,15.137,67.383,0
1539624106.953,24.414,41.992,29.297,9.766,105.957,0
1539624106.957,23.926,43.945,36.621,14.160,79.102,0
1539624106.961,17.578,35.645,38.574,20.996,3.418,0
1539624106.965,20.996,27.832,41.016,18.066,41.992,0
1539624106.969,27.832,32.715,40.039,19.043,67.383,0
1539624106.973,28.320,39.062,40.039,23.438,65.918,0
1539624106.977,27.344,42.969,35.645,28.320,54.688,0
1539624106.980,20.020,39.062,32.715,17.090,-6.836,0
1539624106.984,17.578,32.227,39.551,7.812,16.602,0
1539624106.988,19.531,39.062,45.410,10.742,61.035,0
1539624106.992,16.602,48.340,45.898,12.207,38.574,0
1539624106.996,15.137,47.852,38.086,14.648,-19.531,0
1539624107.000,21.484,42.480,29.297,16.113,-20.996,0
1539624107.004,30.762,37.598,31.738,12.695,0.977,0
1539624107.008,40.527,37.109,40.527,21.484,-13.672,0
1539624107.012,42.480,37.598,42.480,25.879,-31.250,0
1539624107.016,31.738,33.691,42.480,24.414,-3.418,0
1539624107.020,22.949,34.180,48.340,29.785,-13.672,0
1539624107.023,19.531,40.039,48.340,29.785,3.906,0
1539624107.027,25.879,44.922,43.457,31.738,49.805,0
1539624107.031,23.926,44.922,39.551,29.785,35.156,0
1539624107.035,20.508,41.504,40.527,25.391,-3.906,0
1539624107.039,24.414,39.062,35.156,23.438,0.977,0
1539624107.043,16.602,40.527,34.180,15.137,39.551,0
1539624107.047,16.602,37.109,38.086,17.090,23.438,0
1539624107.051,33.691,38.574,41.992,28.809,41.992,0
1539624107.055,28.320,43.945,42.969,12.695,31.250,0
1539624107.059,20.020,41.504,35.645,3.418,-1.465,0
1539624107.063,17.578,36.133,37.109,7.812,19.043,0
1539624107.066,15.625,35.156,39.062,6.348,79.102,0
1539624107.070,17.578,40.527,39.062,14.648,119.141,0
1539624107.074,12.207,43.945,41.504,16.602,70.801,0
1539624107.078,15.625,41.504,46.387,15.625,35.156,0
1539624107.082,25.391,39.551,42.480,17.578,66.895,0
1539624107.086,34.668,41.992,35.156,23.438,29.785,0
1539624107.090,38.574,40.527,40.039,28.320,-18.066,0
1539624107.094,34.180,34.668,42.480,30.762,34.180,0
1539624107.098,28.809,37.598,47.852,35.156,71.777,0
1539624107.102,26.855,39.551,53.223,33.691,64.453,0
1539624107.105,30.273,39.062,52.246,35.645,12.207,0
1539624107.109,31.250,44.434,47.852,39.551,-5.859,0
1539624107.113,30.762,45.898,44.922,32.227,28.809,0
1539624107.117,27.344,44.434,44.922,29.785,41.504,0
1539624107.121,29.297,40.527,41.504,32.715,52.734,0
1539624107.125,31.738,32.715,39.062,22.949,50.781,0
1539624107.129,28.809,30.762,37.109,23.926,28.809,0
1539624107.133,25.391,36.621,38.086,24.902,85.938,0
1539624107.137,21.484,39.062,37.598,20.996,77.637,0
1539624107.141,18.066,39.551,34.180,20.020,25.879,0
1539624107.145,15.625,40.039,35.645,16.113,47.852,0
1539624107.148,21.973,44.434,35.156,12.207,41.016,0
1539624107.152,23.926,46.875,38.574,5.371,33.203,0
1539624107.156,26.367,42.480,40.527,10.742,31.250,0
1539624107.160,31.738,36.621,29.785,13.672,35.156,0
1539624107.164,30.762,33.691,33.203,16.113,27.832,0
1539624107.168,24.414,30.273,41.504,20.508,19.531,0
1539624107.172,17.578,28.320,39.062,22.949,11.230,0
1539624107.176,20.020,33.203,41.504,25.391,-3.418,0
1539624107.180,29.785,35.645,42.969,21.484,64.453,0
1539624107.184,24.414,35.156,41.016,16.113,82.031,0
1539624107.188,25.879,44.434,42.480,21.973,-11.230,0
1539624107.191,36.133,49.316,35.645,23.926,-4.883,0
1539624107.195,24.414,39.062,26.855,19.043,20.020,0
1539624107.199,25.879,35.645,32.715,25.391,-6.836,0
1539624107.203,37.109,37.598,34.668,35.156,16.602,0
1539624107.207,31.738,36.133,32.715,33.203,48.340,0
1539624107.211,28.809,38.574,40.527,27.344,31.250,0
1539624107.215,33.203,43.945,41.504,26.367,3.906,0
1539624107.219,29.297,44.922,35.645,23.438,14.160,0
1539624107.223,33.203,44.434,33.691,29.785,-19.531,0
1539624107.227,44.434,40.039,36.133,28.809,-37.598,0
1539624107.230,38.086,35.645,35.156,23.926,-6.836,0
1539624107.234,40.527,38.574,33.203,30.762,80.078,0
1539624107.238,43.945,39.551,37.598,30.762,109.375,0
1539624107.242,29.297,43.945,40.527,28.809,43.457,0
1539624107.246,26.367,46.387,36.621,25.879,40.039,0
1539624107.250,28.809,40.039,35.156,23.926,33.203,0
1539624107.254,22.461,41.504,37.109,21.973,45.410,0
1539624107.258,26.367,47.363,38.574,23.438,55.664,0
1539624107.262,36.621,47.363,36.621,29.785,61.523,0
1539624107.266,31.738,36.621,33.691,28.809,80.078,0
1539624107.270,24.414,33.203,29.785,23.926,102.539,0
1539624107.273,25.391,40.039,28.809,24.414,67.383,0
1539624107.277,28.320,41.504,33.203,24.902,11.719,0
1539624107.281,34.180,41.504,40.039,24.902,8.789,0
1539624107.285,39.062,40.527,43.945,26.367,14.648,0
1539624107.289,25.391,41.016,38.574,20.508,52.734,0
1539624107.293,21.484,40.527,31.250,18.555,85.449,0
1539624107.297,27.832,37.598,39.062,19.043,82.031,0
1539624107.301,29.785,39.551,39.551,20.996,25.879,0
1539624107.305,26.367,47.363,38.086,20.996,-10.254,0
1539624107.309,23.438,48.340,38.574,15.137,2.441,0
1539624107.313,27.832,40.039,36.621,23.438,9.277,0
1539624107.316,33.203,40.039,40.527,34.180,-8.301,0
1539624107.320,35.156,40.527,42.480,27.832,22.461,0
1539624107.324,38.086,36.621,44.434,27.832,27.344,0
1539624107.328,44.922,38.574,38.086,27.832,-4.395,0
1539624107.332,36.133,37.109,33.203,16.113,46.387,0
1539624107.336,34.668,38.574,37.598,16.602,41.504,0
1539624107.340,27.344,44.434,38.574,22.949,-2.930,0
1539624107.344,19.531,43.457,35.156,22.461,1.465,0
1539624107.348,27.344,39.551,33.203,23.438,65.430,0
1539624107.352,26.367,40.527,30.762,21.973,77.148,0
1539624107.355,27.832,42.969,37.109,22.949,3.906,0
1539624107.359,34.180,42.969,41.016,27.344,8.789,0
1539624107.363,34.180,40.527,38.086,20.020,-54.199,0
1539624107.367,28.809,40.039,39.062,19.531,-79.102,0
1539624107.371,30.273,43.457,37.598,27.832,55.664,0
1539624107.375,38.086,42.969,37.598,25.391,64.941,0
1539624107.379,36.621,43.457,37.598,26.855,6.836,0
1539624107.383,33.203,46.387,37.109,28.809,36.133,0
1539624107.387,29.785,47.363,37.598,22.949,57.129,0
1539624107.391,25.879,44.434,38.574,20.996,50.293,0
1539624107.395,25.879,39.062,37.109,28.320,52.246,0
1539624107.398,32.227,42.480,39.062,26.367,120.605,0
1539624107.402,35.645,44.922,35.156,27.832,137.695,0
1539624107.406,24.414,37.109,30.762,34.668,34.180,0
1539624107.410,24.902,37.109,40.527,41.992,41.992,0
1539624107.414,39.062,39.062,44.922,44.922,83.496,0
1539624107.418,39.062,35.156,44.434,33.691,37.598,0
1539624107.422,33.203,36.133,45.898,35.156,32.715,0
1539624107.426,37.109,36.621,51.270,40.527,0.977,0
1539624107.430,33.691,34.668,50.293,38.086,3.906,0
1539624107.434,39.551,34.668,46.387,37.109,51.270,0
1539624107.438,43.457,34.180,48.340,45.410,-2.441,0
1539624107.441,47.852,32.715,41.016,51.270,-23.438,0
1539624107.445,54.199,35.156,38.086,53.223,-7.324,0
1539624107.449,42.480,35.645,45.410,50.781,22.949,0
1539624107.453,38.574,33.691,44.922,47.852,2.930,0
1539624107.457,38.574,38.574,43.457,48.828,4.395,0
1539624107.461,41.016,43.945,45.898,48.828,62.012,0
1539624107.465,44.434,43.945,48.828,45.410,62.012,0
1539624107.469,35.156,41.992,43.945,40.527,78.613,0
1539624107.473,29.297,41.016,32.715,38.574,58.594,0
1539624107.477,33.691,39.062,36.621,41.016,18.066,0
1539624107.480,28.320,33.691,40.527,39.062,32.227,0
1539624107.484,22.461,32.227,37.598,36.621,41.016,0
1539624107.488,26.367,35.645,39.062,34.180,46.875,0
1539624107.492,28.809,37.598,41.504,27.832,23.438,0
1539624107.496,24.414,37.109,46.875,22.461,21.973,0
1539624107.500,24.902,37.109,44.922,19.043,57.129,0
1539624107.504,25.391,38.086,40.527,21.484,40.527,0
1539624107.508,34.180,38.086,45.898,25.391,50.781,0
1539624107.512,29.785,36.133,43.945,25.391,0.977,0
1539624107.516,30.762,35.156,36.621,30.273,-61.523,0
1539624107.520,39.062,34.668,35.645,31.250,-7.324,0
1539624107.523,34.180,31.250,37.598,31.738,29.785,0
1539624107.527,35.645,33.691,36.621,29.785,54.199,0
1539624107.531,32.715,38.574,39.062,28.320,42.969,0
1539624107.535,33.203,41.992,43.945,33.203,-29.297,0
1539624107.539,45.410,44.922,43.457,34.180,-37.109,0
1539624107.543,49.805,38.086,41.504,33.203,-0.977,0
1539624107.547,49.316,35.645,32.227,32.715,45.898,0
1539624107.551,47.852,41.992,28.809,37.598,51.270,0
1539624107.555,40.039,37.109,39.062,37.109,48.828,0
1539624107.559,43.457,33.203,40.527,31.738,46.875,0
1539624107.563,41.504,35.645,38.574,29.785,4.883,0
1539624107.566,35.156,40.527,40.039,25.391,31.738,0
1539624107.570,33.203,40.527,37.598,21.973,68.359,0
1539624107.574,29.297,36.621,33.203,21.973,42.969,0
1539624107.578,40.039,40.527,32.227,27.344,13.672,0
1539624107.582,48.828,39.551,33.203,29.297,-2.441,1
1539624107.586,50.293,36.133,39.062,31.738,23.438,0
1539624107.590,49.316,39.551,45.410,33.203,18.066,0
1539624107.594,49.316,38.574,42.969,29.785,16.113,0
1539624107.598,50.781,36.621,36.133,27.832,7.812,0
1539624107.602,52.246,37.598,27.832,26.367,2.441,0
1539624107.605,45.410,38.086,22.949,22.461,29.785,0
1539624107.609,41.504,39.062,36.133,20.508,10.254,0
1539624107.613,44.922,43.457,43.945,20.996,17.578,0
1539624107.617,44.922,41.992,40.039,20.996,45.410,0
1539624107.621,39.062,35.645,41.504,27.344,66.895,0
1539624107.625,30.762,34.668,48.340,35.645,52.734,0
1539624107.629,30.273,34.180,44.434,28.809,38.086,0
1539624107.633,28.809,30.273,33.691,19.531,30.273,0
1539624107.637,23.926,32.227,29.785,19.043,13.184,0
1539624107.641,29.785,33.203,36.621,17.578,32.715,0
1539624107.645,31.250,31.738,44.922,20.996,53.223,0
1539624107.648,21.973,35.645,48.340,22.949,35.645,0
1539624107.652,22.949,37.109,43.457,27.344,46.387,0
1539624107.656,23.438,32.227,36.133,32.227,88.867,0
1539624107.660,25.879,27.832,41.992,18.066,68.359,0
1539624107.664,36.621,25.879,49.805,11.719,25.879,0
1539624107.668,39.551,24.902,52.246,19.531,62.500,0
1539624107.672,40.527,30.762,49.805,27.832,19.043,0
1539624107.676,39.551,39.551,50.781,31.738,-31.738,0
1539624107.680,38.086,38.574,51.758,34.668,21.973,0
1539624107.684,41.992,35.645,50.781,36.621,18.066,0
1539624107.688,33.691,34.180,43.945,34.668,10.742,0
1539624107.691,31.738,31.250,39.551,39.062,49.805,0
1539624107.695,39.551,31.738,42.969,39.062,58.105,0
1539624107.699,36.133,35.156,40.527,35.645,47.852,0
1539624107.703,24.902,35.156,34.668,28.809,44.434,0
1539624107.707,24.414,36.621,31.738,25.879,35.645,0
1539624107.711,23.438,36.133,34.180,24.902,22.949,0
1539624107.715,18.555,36.133,39.062,17.090,52.734,0
1539624107.719,16.602,39.062,41.016,18.066,57.617,0
1539624107.723,9.277,38.086,41.016,19.043,42.969,0
1539624107.727,8.301,37.598,40.527,18.555,29.297,0
1539624107.730,17.090,33.203,39.062,19.531,20.996,0
1539624107.734,11.719,23.438,42.969,20.020,82.031,0
1539624107.738,14.160,21.484,41.016,23.438,106.934,0
1539624107.742,25.879,27.344,37.598,25.879,42.969,0
1539624107.746,17.578,33.691,45.410,22.461,34.668,0
1539624107.750,16.113,33.203,44.922,21.484,65.918,0
1539624107.754,19.531,35.645,42.480,24.414,19.043,0
1539624107.758,21.484,37.598,41.016,30.273,17.578,0
1539624107.762,23.926,35.645,39.551,37.109,29.785,0
1539624107.766,22.461,41.016,41.016,32.227,8.301,0
1539624107.770,24.414,42.480,41.504,29.785,-16.113,0
1539624107.773,24.414,35.645,42.480,31.250,-17.578,0
1539624107.777,21.973,36.133,41.016,32.227,37.109,0
1539624107.781,18.555,39.551,40.527,35.156,26.855,0
1539624107.785,18.066,38.086,39.551,26.855,-58.105,0
1539624107.789,21.973,38.574,35.156,20.020,12.207,0
1539624107.793,25.879,39.062,36.133,20.996,57.617,0
1539624107.797,20.020,36.133,36.621,18.066,-21.484,0
1539624107.801,14.648,35.645,36.621,22.949,-43.457,0
1539624107.805,16.113,39.551,29.297,26.367,18.555,0
1539624107.809,16.113,39.551,24.902,21.973,20.020,0
1539624107.813,16.602,35.645,35.645,20.020,30.273,0
1539624107.816,20.508,39.062,36.621,27.832,40.039,0
1539624107.820,26.855,38.086,38.086,31.250,63.965,0
1539624107.824,31.738,37.109,43.457,32.715,52.246,0
1539624107.828,33.203,42.480,43.457,33.203,-56.152,0
1539624107.832,30.762,43.945,39.551,28.320,-1.953,0
1539624107.836,28.809,42.969,38.574,24.414,52.246,0
1539624107.840,31.250,44.434,41.016,27.344,36.621,0
1539624107.844,29.297,46.875,40.039,26.855,-10.254,0
1539624107.848,39.062,46.387,35.645,21.973,-19.531,0
1539624107.852,32.227,43.457,37.109,23.926,20.508,0
1539624107.855,29.297,39.062,40.527,26.855,38.574,0
1539624107.859,28.809,37.598,41.016,29.785,51.270,0
1539624107.863,22.949,39.062,39.062,33.203,62.500,0
1539624107.867,33.203,39.551,36.133,29.297,48.340,0
1539624107.871,38.574,42.969,38.574,20.020,54.688,0
1539624107.875,42.969,50.293,40.527,24.902,74.219,0
1539624107.879,42.969,48.340,42.969,32.227,20.508,0
1539624107.883,38.086,39.551,47.852,22.949,7.812,0
1539624107.887,29.785,36.621,34.180,18.555,65.918,0
1539624107.891,27.344,37.109,25.391,23.438,61.035,0
1539624107.895,23.926,38.086,36.133,21.484,43.945,0
1539624107.898,26.855,39.551,38.086,22.949,-3.906,0
1539624107.902,29.785,41.992,37.598,24.414,9.766,0
1539624107.906,19.531,44.922,41.504,20.020,56.641,0
1539624107.910,16.113,46.387,43.457,22.461,39.062,0
1539624107.914,17.090,41.016,37.109,23.926,51.270,0
1539624107.918,23.438,37.598,32.227,21.484,74.707,0
1539624107.922,26.367,40.527,39.062,25.391,73.730,0
1539624107.926,27.344,41.992,35.645,29.785,54.688,0
1539624107.930,26.367,40.039,33.203,19.531,72.754,0
1539624107.934,23.926,37.109,48.828,12.207,74.219,0
1539624107.938,19.043,40.527,47.852,13.672,23.438,0
1539624107.941,18.555,43.945,37.598,10.254,4.883,0
1539624107.945,18.555,38.574,38.574,14.648,50.781,0
1539624107.949,20.996,36.133,44.434,20.508,10.742,0
1539624107.953,27.344,35.156,47.852,20.020,-8.301,0
1539624107.957,30.762,40.039,44.922,26.855,41.016,0
1539624107.961,25.391,43.457,36.621,23.438,28.320,0
1539624107.965,20.996,39.062,31.250,11.230,-6.836,0
1539624107.969,27.344,37.109,31.738,18.555,-10.254,0
1539624107.973,28.809,37.109,33.203,19.043,9.277,0
1539624107.977,24.902,42.480,32.715,12.207,6.836,0
1539624107.980,18.066,41.992,34.668,12.695,44.434,0
1539624107.984,16.113,41.504,36.133,12.207,80.078,0
1539624107.988,23.438,37.598,42.480,9.277,40.527,0
1539624107.992,20.508,29.785,43.945,11.719,14.648,0
1539624107.996,17.578,34.180,31.738,19.043,26.367,0
1539624108.000,20.508,39.551,38.574,22.949,52.246,0
1539624108.004,30.762,44.922,51.270,19.531,43.945,0
1539624108.008,27.832,44.922,45.410,16.113,27.344,0
1539624108.012,22.949,41.016,36.621,21.484,47.852,0
1539624108.016,31.250,40.527,37.109,23.438,12.695,0
1539624108.020,30.273,38.086,40.039,22.461,-5.859,0
1539624108.023,29.297,35.156,42.969,19.043,-0.977,0
1539624108.027,33.203,38.574,42.969,20.020,20.508,0
1539624108.031,40.527,49.316,39.551,22.461,69.336,0
1539624108.035,31.738,46.875,29.785,12.695,91.309,0
1539624108.039,22.949,36.133,26.367,12.207,63.965,0
1539624108.043,26.855,40.039,37.109,24.414,38.574,0
1539624108.047,20.020,41.016,41.504,26.855,-1.465,0
1539624108.051,20.508,37.598,41.016,29.297,-13.672,0
1539624108.055,27.344,36.621,43.945,38.086,-10.254,0
1539624108.059,28.809,36.621,42.480,45.898,-21.973,0
1539624108.063,34.180,37.598,38.574,39.062,13.672,0
1539624108.066,36.621,39.062,42.480,31.250,56.641,0
1539624108.070,32.715,41.504,41.504,36.133,84.473,0
1539624108.074,31.738,41.016,36.621,34.180,57.129,0
1539624108.078,34.668,41.016,34.180,29.297,46.387,0
1539624108.082,23.438,37.598,35.645,29.297,26.367,0
1539624108.086,25.879,33.691,37.598,36.133,14.648,0
1539624108.090,35.645,34.180,38.574,41.504,-1.953,0
1539624108.094,29.785,38.574,39.551,31.738,6.348,0
1539624108.098,26.855,41.992,29.785,24.414,100.098,0
1539624108.102,33.203,42.480,32.715,35.156,62.500,0
1539624108.105,26.855,37.109,42.969,32.227,41.016,0
1539624108.109,22.949,37.598,44.434,32.227,98.145,0
1539624108.113,29.297,42.969,44.434,36.621,52.734,0
1539624108.117,23.438,38.574,39.551,30.762,-5.371,0
1539624108.121,17.090,39.551,39.062,27.344,3.418,0
1539624108.125,15.137,40.527,42.969,16.602,33.691,0
1539624108.129,18.555,41.016,43.945,17.578,31.738,0
1539624108.133,10.254,42.480,44.434,22.461,11.230,0
1539624108.137,0.488,41.016,42.480,11.230,34.668,0
1539624108.141,5.859,41.504,42.480,7.812,39.062,0
1539624108.145,7.324,42.480,45.898,7.812,53.223,0
1539624108.148,7.324,46.875,43.945,7.812,69.336,0
1539624108.152,8.301,48.828,39.551,8.301,1.953,0
1539624108.156,6.836,48.340,38.086,-0.488,17.090,0
1539624108.160,5.859,49.316,35.645,-0.488,54.199,0
1539624108.164,13.184,49.316,38.086,8.789,60.547,0
1539624108.168,20.508,51.270,38.086,10.254,33.203,0
1539624108.172,18.066,41.016,34.180,14.648,27.344,0
1539624108.176,23.926,37.598,35.156,21.973,38.574,0
1539624108.180,22.949,44.922,37.109,23.926,63.965,0
1539624108.184,21.484,41.992,40.039,25.391,105.957,0
1539624108.188,23.926,36.621,40.039,25.391,98.145,0
1539624108.191,20.020,39.551,39.551,33.203,72.266,0
1539624108.195,33.203,47.363,39.551,39.551,45.410,0
1539624108.199,42.480,41.992,34.668,34.668,34.180,0
1539624108.203,42.480,33.203,30.273,37.598,-0.977,0
1539624108.207,43.945,34.668,35.156,48.828,43.457,0
1539624108.211,42.480,34.668,35.645,52.246,78.125,0
1539624108.215,40.527,35.156,35.645,51.270,54.688,0
1539624108.219,44.922,38.086,39.062,53.711,27.344,0
1539624108.223,45.898,41.504,39.551,50.781,-14.160,0
1539624108.227,46.387,46.387,36.621,50.781,-28.320,0
1539624108.230,53.223,47.852,34.180,56.152,-41.504,0
1539624108.234,62.012,45.410,37.598,54.199,-44.922,0
1539624108.238,57.129,39.551,40.039,51.758,12.207,0
1539624108.242,51.758,35.645,38.086,52.246,20.508,0
1539624108.246,48.828,35.156,33.691,48.828,23.438,0
1539624108.250,53.223,37.598,32.715,52.734,24.902,0
1539624108.254,50.293,39.551,36.133,51.270,23.926,0
1539624108.258,39.551,39.551,37.109,41.016,63.477,0
1539624108.262,49.805,46.875,38.574,44.922,46.387,0
1539624108.266,55.664,49.316,39.062,48.340,20.508,0
1539624108.270,43.945,39.551,39.062,41.504,-35.156,0
1539624108.273,43.457,35.156,45.410,40.039,-40.039,0
1539624108.277,44.434,30.762,41.992,43.945,57.617,0
1539624108.281,46.387,30.762,33.691,42.480,83.496,0
1539624108.285,48.828,33.203,28.320,41.992,56.152,0
1539624108.289,45.898,39.062,28.809,48.340,23.438,0
1539624108.293,52.246,42.480,32.227,49.805,64.941,0
1539624108.297,49.316,38.574,33.691,48.340,61.523,0
1539624108.301,40.527,37.109,39.062,45.410,19.531,0
1539624108.305,42.969,37.598,43.945,44.434,-23.926,0
1539624108.309,48.828,37.109,43.457,49.805,34.180,0
1539624108.313,50.781,35.156,38.574,45.410,30.273,0
1539624108.316,50.293,30.762,34.668,41.992,34.180,0
1539624108.320,52.246,29.785,35.645,44.434,67.383,0
1539624108.324,54.199,33.691,40.039,43.945,16.113,0
1539624108.328,52.734,36.621,40.039,42.480,31.250,0
1539624108.332,47.852,38.574,35.645,44.922,50.781,0
1539624108.336,43.457,40.039,34.668,44.922,50.293,0
1539624108.340,34.180,37.109,37.109,42.969,42.969,0
1539624108.344,39.062,40.527,37.109,43.945,-15.625,0
1539624108.348,40.527,41.992,37.109,41.992,-16.113,0
1539624108.352,36.133,38.574,39.062,38.574,47.852,0
1539624108.355,37.109,39.062,37.598,37.598,102.539,0
1539624108.359,44.922,40.039,44.922,44.434,37.598,0
1539624108.363,51.758,39.551,50.293,43.457,-3.418,0
1539624108.367,43.457,39.062,44.922,36.133,25.391,0
1539624108.371,44.922,38.574,39.551,37.109,-5.859,0
1539624108.375,43.457,37.598,38.574,38.574,19.531,0
1539624108.379,35.645,40.527,37.109,34.668,70.801,0
1539624108.383,36.133,42.969,35.156,34.180,55.664,0
1539624108.387,41.504,43.457,38.086,35.156,29.297,0
1539624108.391,41.504,39.062,40.527,35.156,-22.461,0
1539624108.395,32.715,35.156,36.621,35.645,-10.254,0
1539624108.398,31.738,36.621,31.738,32.227,35.645,0
1539624108.402,30.762,41.016,37.109,35.156,20.020,0
1539624108.406,30.762,44.922,41.504,35.156,81.055,0
1539624108.410,34.180,42.969,43.457,30.273,75.195,0
1539624108.414,31.738,39.551,44.434,30.273,8.789,0
1539624108.418,22.461,39.062,41.992,24.414,27.344,0
1539624108.422,21.484,42.480,38.574,19.043,-25.879,0
1539624108.426,24.902,42.480,38.574,12.695,15.625,0
1539624108.430,21.973,32.715,39.062,14.160,56.641,0
1539624108.434,15.137,29.297,35.645,19.043,56.641,0
1539624108.438,17.578,31.738,32.227,19.531,29.297,0
1539624108.441,19.043,30.762,33.691,20.996,-2.930,0
1539624108.445,13.672,34.180,34.180,19.531,-6.836,0
1539624108.449,11.719,41.504,33.203,17.578,-16.602,0
1539624108.453,17.578,42.480,38.574,18.555,15.625,0
1539624108.457,14.648,40.039,42.969,18.555,25.391,0
1539624108.461,10.254,38.086,38.574,14.648,38.574,0
1539624108.465,16.602,38.086,41.016,14.648,72.754,0
1539624108.469,14.160,37.598,44.434,13.184,63.965,0
1539624108.473,21.484,36.621,44.922,13.184,10.742,0
1539624108.477,33.203,45.898,41.016,19.043,4.883,0
1539624108.480,37.598,52.246,40.527,22.949,62.988,0
1539624108.484,42.480,48.340,45.898,27.344,24.902,0
1539624108.488,39.062,46.875,45.410,28.320,19.043,0
1539624108.492,31.738,45.410,42.969,32.715,85.449,0
1539624108.496,37.598,41.016,36.621,38.086,72.266,0
1539624108.500,35.156,43.457,34.180,30.273,23.438,0
1539624108.504,35.156,45.410,41.016,24.902,33.203,0
1539624108.508,49.316,45.410,42.969,30.273,15.137,0
1539624108.512,43.945,48.828,39.551,25.391,-13.672,0
1539624108.516,35.156,44.922,43.457,20.996,23.926,0
1539624108.520,33.203,41.504,47.363,29.297,52.246,0
1539624108.523,35.645,46.875,35.645,30.762,81.055,0
1539624108.527,40.527,46.387,36.133,27.344,83.984,0
1539624108.531,42.480,37.598,49.316,24.902,42.480,0
1539624108.535,34.668,32.715,52.734,23.926,62.012,0
1539624108.539,31.738,34.180,49.316,25.879,35.156,0
1539624108.543,38.086,37.109,42.969,26.855,41.016,0
1539624108.547,30.273,40.039,37.109,30.762,46.875,0
1539624108.551,30.273,40.039,35.156,27.832,21.973,0
1539624108.555,32.227,33.691,33.691,28.809,30.762,0
1539624108.559,31.738,35.645,33.691,31.250,35.645,0
1539624108.563,34.668,39.551,39.062,25.391,27.832,0
1539624108.566,38.086,42.480,42.480,27.832,11.719,0
1539624108.570,38.574,40.527,41.992,34.180,81.055,0
1539624108.574,34.668,35.645,41.504,36.133,95.215,0
1539624108.578,42.969,39.062,39.551,35.645,7.324,0
1539624108.582,43.945,41.992,35.156,33.691,10.254,0
1539624108.586,41.504,42.480,38.574,31.738,61.035,0
1539624108.590,44.922,42.480,38.574,27.832,22.949,0
1539624108.594,28.809,37.598,36.133,24.414,37.598,0
1539624108.598,24.414,39.062,38.574,28.809,60.059,0
1539624108.602,31.250,36.621,42.969,32.227,50.781,0
1539624108.605,37.598,32.715,41.016,32.715,31.250,0
1539624108.609,38.574,30.762,36.621,34.668,35.156,0
1539624108.613,41.016,31.250,37.109,39.062,-26.855,0
1539624108.617,43.945,34.668,36.133,35.156,-16.602,0
1539624108.621,36.621,35.156,35.645,27.344,36.621,0
1539624108.625,38.086,39.062,30.273,27.344,-9.277,0
1539624108.629,44.922,42.969,26.367,32.227,23.926,0
1539624108.633,46.875,39.551,32.227,37.109,79.590,0
1539624108.637,41.504,34.180,34.668,34.180,8.301,0
1539624108.641,29.297,32.715,36.133,39.062,-27.832,0
1539624108.645,29.785,35.645,40.039,49.805,18.555,0
1539624108.648,40.527,34.180,36.621,40.527,24.414,0
1539624108.652,38.574,28.809,39.062,36.133,18.555,0
1539624108.656,34.180,28.809,43.945,39.062,9.766,0
1539624108.660,41.504,28.809,34.180,33.203,41.016,0
1539624108.664,41.016,29.785,35.156,38.574,48.340,0
1539624108.668,37.598,28.320,46.875,41.016,-11.230,0
1539624108.672,28.809,29.297,45.898,34.668,12.207,0
1539624108.676,25.391,36.133,41.016,31.738,23.926,0
1539624108.680,35.156,37.598,41.016,30.273,-11.719,0
1539624108.684,32.227,35.156,41.016,27.832,8.301,0
1539624108.688,28.320,38.574,39.551,28.320,14.648,0
1539624108.691,32.227,41.504,35.645,30.762,-55.664,0
1539624108.695,31.738,36.621,34.668,27.344,-32.715,0
1539624108.699,36.621,33.691,33.203,23.926,17.090,0
1539624108.703,35.645,32.227,33.203,21.973,4.883,0
1539624108.707,27.832,29.785,34.180,28.809,3.906,0
1539624108.711,33.203,30.762,33.691,33.203,27.832,0
1539624108.715,28.809,31.738,35.156,28.809,96.191,0
1539624108.719,28.320,36.621,33.691,26.855,82.031,0
1539624108.723,29.785,39.551,31.738,29.785,77.637,0
1539624108.727,33.203,38.086,32.715,23.438,20.508,0
1539624108.730,36.133,36.621,31.738,22.461,2.441,0
1539624108.734,32.715,32.715,32.715,25.879,30.762,0
1539624108.738,33.691,30.762,39.062,20.020,8.301,0
1539624108.742,31.250,32.715,36.621,22.949,40.039,0
1539624108.746,26.367,34.668,34.668,26.367,51.270,0
1539624108.750,23.926,33.691,37.598,25.391,34.668,0
1539624108.754,31.250,34.668,38.574,27.832,51.270,0
1539624108.758,34.180,39.062,38.574,23.926,53.711,0
1539624108.762,30.273,38.086,37.109,22.461,15.137,0
1539624108.766,32.715,34.668,35.156,16.602,-1.465,0
1539624108.770,38.086,40.039,32.715,16.113,15.137,0
1539624108.773,34.668,40.039,33.691,16.113,-19.531,0
1539624108.777,33.203,36.621,29.785,19.531,-33.203,0
1539624108.781,52.734,41.016,34.668,30.762,5.371,0
1539624108.785,40.039,41.992,36.621,23.438,32.715,0
1539624108.789,9.277,34.180,32.227,8.301,73.242,0
1539624108.793,15.625,31.738,36.133,20.508,46.875,0
1539624108.797,20.508,34.668,35.645,21.484,-0.977,0
1539624108.801,8.301,32.715,36.621,3.906,36.621,0
1539624108.805,13.184,31.250,40.039,14.160,36.133,0
1539624108.809,22.949,39.062,36.621,19.043,26.367,0
1539624108.813,15.137,38.574,34.180,7.812,12.207,0
1539624108.816,21.973,35.645,32.715,15.625,-29.785,0
1539624108.820,25.391,33.203,29.785,19.531,-9.766,0
1539624108.824,24.414,31.250,33.691,12.695,20.508,0
1539624108.828,21.484,35.156,31.738,10.742,6.348,0
1539624108.832,18.066,36.133,32.715,14.648,0.977,0
1539624108.836,21.973,38.086,35.156,20.996,-26.855,0
1539624108.840,28.320,40.039,35.156,20.020,7.812,0
1539624108.844,32.715,41.504,37.598,24.414,40.039,0
1539624108.848,27.344,44.434,42.969,29.297,27.344,0
1539624108.852,26.855,46.875,41.504,35.645,47.852,0
1539624108.855,23.926,45.898,36.133,34.180,19.531,0
1539624108.859,21.973,42.480,40.039,30.273,55.664,0
1539624108.863,25.391,41.992,41.016,28.320,119.141,0
1539624108.867,28.320,40.527,40.039,28.809,66.406,0
1539624108.871,37.598,41.992,39.551,32.715,55.664,0
1539624108.875,31.738,43.457,32.715,29.785,66.406,0
1539624108.879,26.367,40.039,33.691,34.668,-1.953,1
1539624108.883,31.250,38.574,38.574,37.598,48.340,0
1539624108.887,39.062,39.062,41.504,36.621,53.711,0
1539624108.891,41.504,38.574,46.387,38.574,47.852,0
1539624108.895,43.945,40.527,42.969,41.504,52.246,0
1539624108.898,31.250,40.527,34.180,32.227,-1.953,0
1539624108.902,24.414,38.574,34.180,28.809,50.781,0
1539624108.906,31.250,40.527,31.738,32.715,79.590,0
1539624108.910,26.855,42.480,24.902,33.691,141.602,0
1539624108.914,30.762,42.480,30.762,35.645,147.461,0
1539624108.918,43.945,42.480,34.668,31.738,77.637,0
1539624108.922,37.109,39.551,35.645,25.391,33.203,0
1539624108.926,28.320,36.133,36.621,25.879,37.598,0
1539624108.930,40.527,36.133,38.574,27.344,76.172,0
1539624108.934,36.133,41.016,40.039,22.949,39.551,0
1539624108.938,29.297,44.922,42.969,27.344,8.301,0
1539624108.941,31.738,41.992,44.434,32.715,29.297,0
1539624108.945,33.203,34.668,45.410,32.227,31.250,0
1539624108.949,33.203,35.156,44.434,25.879,49.805,0
1539624108.953,30.762,39.551,35.645,24.902,96.680,0
1539624108.957,31.738,37.598,30.762,32.715,29.297,0
1539624108.961,36.621,38.574,31.738,31.250,32.715,0
1539624108.965,42.480,41.016,34.668,35.645,39.062,0
1539624108.969,41.016,46.875,33.691,42.969,38.574,0
1539624108.973,42.480,50.293,33.203,41.016,62.012,0
1539624108.977,41.016,43.945,40.527,36.133,52.734,0
1539624108.980,38.574,41.504,40.039,34.180,61.523,0
1539624108.984,28.320,41.016,27.344,31.738,36.621,0
1539624108.988,18.066,33.203,31.250,30.273,-29.297,0
1539624108.992,20.020,27.832,39.551,30.273,3.418,0
1539624108.996,28.809,31.250,38.574,31.738,92.773,0
1539624109.000,27.344,34.180,41.504,32.227,46.875,0
1539624109.004,18.066,38.086,40.039,36.621,-5.371,0
1539624109.008,26.367,42.969,39.062,34.180,13.672,0
1539624109.012,28.809,44.922,35.156,22.949,53.223,0
1539624109.016,23.438,41.992,27.344,24.902,38.086,0
1539624109.020,29.785,36.621,28.320,24.902,40.527,0
1539624109.023,31.250,33.691,31.738,19.531,41.504,0
1539624109.027,27.832,32.715,33.691,20.508,11.230,0
1539624109.031,29.785,36.133,34.180,26.855,38.086,0
1539624109.035,33.203,39.551,33.203,27.832,69.336,0
1539624109.039,32.715,37.598,32.227,22.949,56.152,0
1539624109.043,27.832,38.574,31.250,21.973,39.062,0
1539624109.047,31.250,46.387,34.668,20.508,38.086,0
1539624109.051,40.527,48.340,40.527,24.902,24.414,0
1539624109.055,39.551,42.969,41.504,27.344,5.859,0
1539624109.059,39.551,39.551,42.480,27.832,-23.438,0
1539624109.063,41.016,38.086,42.969,31.738,-11.230,0
1539624109.066,37.598,37.598,41.992,34.180,53.711,0
1539624109.070,37.598,39.062,39.062,30.273,58.594,0
1539624109.074,38.574,40.039,34.668,33.203,-6.836,0
1539624109.078,34.668,38.574,36.621,35.156,-22.949,0
1539624109.082,36.133,37.109,39.062,35.156,48.828,0
1539624109.086,37.109,38.574,37.598,36.133,54.688,0
1539624109.090,37.109,39.062,37.109,34.180,33.691,0
1539624109.094,39.551,43.457,40.527,35.645,52.734,0
1539624109.098,36.133,44.922,44.922,34.668,35.645,0
1539624109.102,28.320,39.551,46.875,31.250,13.672,0
1539624109.105,28.809,38.574,45.410,28.809,0.488,0
1539624109.109,30.273,41.992,45.898,27.832,21.973,0
1539624109.113,34.180,44.922,46.387,32.715,41.016,0
1539624109.117,27.832,42.969,37.598,28.809,17.578,0
1539624109.121,27.832,43.457,37.109,28.809,-18.555,0
1539624109.125,37.109,46.875,36.133,30.273,55.176,0
1539624109.129,36.621,43.945,35.156,20.020,40.039,0
1539624109.133,32.715,40.527,38.574,21.973,-5.371,0
1539624109.137,26.367,37.598,39.062,28.320,30.762,0
1539624109.141,18.066,27.832,41.504,26.855,15.137,0
1539624109.145,26.367,28.809,44.922,29.785,24.902,0
1539624109.148,27.832,35.156,48.340,30.273,13.672,0
1539624109.152,20.996,33.203,43.945,26.855,7.812,0
1539624109.156,21.484,36.133,38.574,24.414,55.664,0
1539624109.160,23.438,41.016,37.598,18.555,78.125,0
1539624109.164,28.320,37.109,41.992,15.625,33.691,0
1539624109.168,22.949,36.621,39.551,18.066,26.367,0
1539624109.172,20.508,39.062,37.109,20.508,30.273,0
1539624109.176,21.484,37.109,34.668,19.043,28.809,0
1539624109.180,16.113,36.621,31.250,19.531,-0.977,0
1539624109.184,19.043,41.992,41.016,20.020,-16.113,0
1539624109.188,15.137,46.387,36.133,20.508,25.879,0
1539624109.191,15.137,41.016,27.832,26.367,48.340,0
1539624109.195,16.113,31.738,36.133,31.738,42.480,0
1539624109.199,18.066,31.250,40.039,28.809,31.250,0
1539624109.203,31.250,38.574,43.945,19.531,22.461,0
1539624109.207,31.250,36.133,42.480,14.648,17.090,0
1539624109.211,30.273,32.227,39.062,23.438,28.320,0
1539624109.215,32.227,33.691,39.551,26.367,-1.465,0
1539624109.219,30.762,36.133,39.551,25.391,0.977,0
1539624109.223,22.949,34.668,40.527,30.762,16.113,0
1539624109.227,23.926,42.480,41.992,32.715,22.461,0
1539624109.230,29.785,44.922,40.039,32.715,49.316,0
1539624109.234,26.367,34.668,41.016,31.250,7.324,0
1539624109.238,23.926,31.738,37.598,26.367,-2.930,0
1539624109.242,24.414,34.180,34.180,28.320,28.320,0
1539624109.246,31.738,39.551,36.133,30.273,38.086,0
1539624109.250,30.273,40.039,34.668,21.973,-8.301,0
1539624109.254,16.602,36.621,29.785,12.207,-7.812,0
1539624109.258,22.949,34.668,36.621,16.113,-23.926,0
1539624109.262,24.902,37.598,42.480,16.113,-21.973,0
1539624109.266,23.926,41.504,37.109,13.184,18.555,0
1539624109.270,20.020,41.016,39.551,17.090,11.719,0
1539624109.273,9.766,39.551,39.551,19.531,28.809,0
1539624109.277,11.719,36.621,41.016,22.949,50.293,0
1539624109.281,21.973,34.180,35.645,26.855,63.965,0
1539624109.285,33.203,34.668,27.832,28.809,56.152,0
1539624109.289,30.273,32.227,29.785,30.762,5.859,0
1539624109.293,24.414,39.062,34.668,28.320,38.574,0
1539624109.297,23.438,42.969,39.551,23.926,68.359,0
1539624109.301,21.973,33.691,43.945,30.273,67.383,0
1539624109.305,26.367,30.762,40.039,36.133,97.168,0
1539624109.309,32.715,35.645,31.738,33.691,15.137,0
1539624109.313,29.785,35.645,31.250,25.879,-20.996,0
1539624109.316,26.367,34.180,34.668,20.508,-2.441,0
1539624109.320,28.320,35.645,35.645,20.508,60.547,0
1539624109.324,29.785,39.551,38.086,18.066,80.078,0
1539624109.328,28.809,41.992,41.504,18.555,23.438,0
1539624109.332,25.391,40.039,30.273,25.391,-12.207,0
1539624109.336,23.926,34.668,30.273,26.367,-0.977,0
1539624109.340,24.902,30.762,36.133,25.391,60.547,0
1539624109.344,21.484,30.273,34.668,23.926,107.910,0
1539624109.348,20.508,33.691,38.086,20.020,29.297,0
1539624109.352,28.320,41.504,37.598,18.066,12.207,0
1539624109.355,26.855,39.062,36.621,23.438,53.223,0
1539624109.359,31.738,36.621,39.062,26.367,6.836,0
1539624109.363,35.156,40.527,41.016,24.902,16.602,0
1539624109.367,30.762,35.156,38.086,25.391,17.090,0
1539624109.371,28.809,28.809,35.645,22.949,20.020,0
1539624109.375,27.832,31.738,28.809,24.902,90.332,0
1539624109.379,28.320,37.109,21.973,27.344,109.375,0
1539624109.383,28.809,39.062,29.785,17.578,108.398,0
1539624109.387,34.180,44.922,35.645,17.578,97.168,0
1539624109.391,32.715,49.805,39.551,26.367,37.598,0
1539624109.395,32.227,43.457,40.039,23.926,25.879,0
1539624109.398,29.785,33.691,36.133,29.785,-3.906,0
1539624109.402,24.414,34.180,40.039,39.551,15.137,0
1539624109.406,25.879,41.504,45.410,41.504,74.219,0
1539624109.410,29.785,44.434,41.504,41.992,69.824,0
1539624109.414,32.715,44.434,32.227,39.062,57.617,0
1539624109.418,37.598,42.969,33.691,34.180,34.668,0
1539624109.422,40.039,45.410,33.691,30.273,-9.277,0
1539624109.426,35.645,47.852,27.344,28.809,-23.438,0
1539624109.430,30.762,43.945,33.691,25.391,12.695,0
1539624109.434,26.367,36.621,38.574,20.020,20.996,0
1539624109.438,35.156,33.203,38.086,23.926,-1.465,0
1539624109.441,40.039,37.598,39.062,28.320,31.250,0
1539624109.445,30.273,39.062,35.645,24.414,18.555,0
1539624109.449,26.855,36.621,30.273,28.809,16.113,0
1539624109.453,25.879,39.551,31.738,31.250,52.246,0
1539624109.457,21.973,40.039,37.109,20.020,59.082,0
1539624109.461,30.273,41.016,36.133,20.996,29.785,0
1539624109.465,32.715,45.898,29.785,23.926,5.859,0
1539624109.469,27.344,46.387,26.367,26.855,1.465,0
1539624109.473,41.992,51.270,25.391,40.527,20.020,0
1539624109.477,51.758,48.340,27.344,41.504,44.434,0
1539624109.480,35.645,38.086,31.738,27.832,19.531,0
1539624109.484,21.484,37.109,30.762,15.625,2.930,0
1539624109.488,31.738,35.645,29.785,16.113,18.066,0
1539624109.492,36.133,35.156,30.762,22.461,23.438,0
1539624109.496,38.574,38.574,28.809,27.832,-4.395,0
1539624109.500,43.945,39.551,27.832,33.691,-8.789,0
1539624109.504,43.457,40.039,30.762,41.504,34.180,0
1539624109.508,42.969,35.645,35.156,46.875,93.262,0
1539624109.512,51.758,39.062,30.762,46.387,43.457,0
1539624109.516,53.223,44.434,29.785,42.969,58.105,0
1539624109.520,36.133,42.969,34.180,37.109,105.957,0
1539624109.523,37.109,37.109,36.133,29.785,94.238,0
1539624109.527,46.387,34.180,38.574,31.250,72.754,0
1539624109.531,36.133,38.086,36.621,28.320,59.570,0
1539624109.535,30.762,41.504,35.156,19.531,85.449,0
1539624109.539,34.668,43.945,37.109,27.344,119.141,0
1539624109.543,34.180,47.363,38.086,35.156,66.406,0
1539624109.547,34.180,47.363,40.527,30.762,20.020,0
1539624109.551,37.109,44.434,34.668,30.273,49.316,0
1539624109.555,43.945,41.992,32.227,32.227,-22.461,0
1539624109.559,45.410,38.574,32.715,30.762,-12.695,0
1539624109.563,40.039,35.645,35.645,36.133,34.668,0
1539624109.566,41.992,35.156,39.551,40.527,43.457,0
1539624109.570,44.434,41.016,40.527,40.527,68.848,0
1539624109.574,50.293,45.410,41.504,47.363,47.363,0
1539624109.578,48.340,43.945,37.598,45.898,-15.625,0
1539624109.582,38.574,39.062,41.504,38.086,18.555,0
1539624109.586,41.504,36.133,39.062,45.410,28.320,0
1539624109.590,37.109,37.598,32.227,45.898,-12.695,0
1539624109.594,39.551,37.598,34.180,41.992,63.965,0
1539624109.598,43.457,31.738,36.133,42.969,73.242,0
1539624109.602,51.758,32.715,38.086,43.945,-18.555,0
1539624109.605,45.898,36.133,40.527,42.480,9.766,0
1539624109.609,29.785,34.668,42.969,43.457,94.238,0
1539624109.613,37.598,37.598,42.969,47.363,61.523,0
1539624109.617,41.504,40.527,41.992,51.270,32.227,0
1539624109.621,41.504,41.016,40.039,49.805,41.992,0
1539624109.625,34.668,37.109,38.574,44.434,70.312,0
1539624109.629,33.691,35.156,39.062,47.363,44.434,0
1539624109.633,41.016,39.062,38.086,43.457,16.113,0
1539624109.637,45.410,38.574,36.133,34.668,48.340,0
1539624109.641,43.945,39.062,33.691,35.645,28.320,0
1539624109.645,40.527,42.480,37.109,36.133,27.344,0
1539624109.648,43.457,36.621,41.504,41.992,34.668,0
1539624109.652,41.504,32.715,32.715,47.363,-0.977,0
1539624109.656,39.062,32.715,35.156,41.504,6.348,0
1539624109.660,42.969,32.715,41.992,41.992,65.918,0
1539624109.664,42.969,36.621,40.527,44.434,49.316,0
1539624109.668,49.316,39.551,41.016,42.480,-7.324,0
1539624109.672,51.758,37.598,38.086,43.945,2.930,0
1539624109.676,39.551,34.180,35.645,46.387,45.898,0
1539624109.680,42.969,35.156,39.062,49.805,19.043,0
1539624109.684,42.969,38.086,39.551,47.363,-10.742,0
1539624109.688,37.109,39.551,39.551,44.922,-13.184,0
1539624109.691,40.039,37.598,41.992,48.828,2.441,0
1539624109.695,44.922,34.180,40.527,49.316,-10.254,0
1539624109.699,39.062,32.227,42.480,40.527,-21.973,0
1539624109.703,39.551,32.715,41.504,39.062,2.441,0
1539624109.707,48.828,38.086,37.109,45.898,20.996,0
1539624109.711,48.828,44.434,41.016,43.945,31.738,0
1539624109.715,41.504,41.504,43.457,43.945,28.809,0
1539624109.719,31.250,29.297,36.621,43.945,4.883,0
1539624109.723,27.832,30.273,33.203,44.922,41.992,0
1539624109.727,25.391,37.109,36.621,46.387,47.363,0
1539624109.730,26.367,40.039,39.551,43.457,48.828,0
1539624109.734,26.367,36.621,40.527,45.410,81.055,0
1539624109.738,26.855,33.691,35.645,42.969,45.410,0
1539624109.742,26.367,34.668,33.691,41.992,43.457,0
1539624109.746,30.273,36.621,35.645,41.504,54.199,0
1539624109.750,39.551,36.133,25.879,37.109,25.391,0
1539624109.754,40.039,35.156,24.902,39.551,44.922,0
1539624109.758,41.992,39.551,35.645,35.156,36.621,0
1539624109.762,40.527,41.504,38.086,27.344,16.602,0
1539624109.766,31.738,39.551,37.109,34.180,14.160,0
1539624109.770,33.691,40.039,37.109,38.574,61.523,0
1539624109.773,35.156,43.457,34.180,39.062,68.359,0
1539624109.777,32.227,41.992,29.297,35.156,20.020,0
1539624109.781,35.645,37.598,30.762,28.809,27.832,0
1539624109.785,41.992,33.203,31.738,35.645,38.574,0
1539624109.789,42.480,33.203,31.250,40.039,42.969,0
1539624109.793,36.621,37.109,34.668,38.086,59.082,0
1539624109.797,42.480,41.504,38.086,43.457,23.438,0
1539624109.801,43.945,40.039,39.551,48.828,16.113,0
1539624109.805,36.621,36.133,40.039,36.621,32.715,0
1539624109.809,29.785,31.738,42.480,30.762,-7.324,0
1539624109.813,22.461,32.227,37.598,29.785,-9.766,0
1539624109.816,22.461,30.762,37.598,25.879,5.859,0
1539624109.820,26.367,28.809,44.434,29.785,-20.020,0
1539624109.824,30.273,32.715,40.039,28.320,26.367,0
1539624109.828,34.180,36.621,31.738,33.691,65.918,0
1539624109.832,42.480,40.527,26.855,43.457,14.648,0
1539624109.836,41.992,37.598,30.273,36.621,3.418,0
1539624109.840,32.715,33.203,33.691,26.367,-8.301,0
1539624109.844,33.691,34.668,33.691,23.926,-12.207,0
1539624109.848,30.273,36.133,36.133,30.273,39.551,0
1539624109.852,18.066,37.598,37.109,33.691,10.254,0
1539624109.855,20.996,39.551,34.668,30.762,0.977,0
1539624109.859,25.879,34.180,31.250,29.785,32.715,0
1539624109.863,26.367,29.785,31.738,28.320,54.199,0
1539624109.867,30.273,33.691,34.180,23.438,9.277,0
1539624109.871,35.645,37.109,31.250,26.855,9.277,0
1539624109.875,31.250,37.598,27.832,31.250,-13.184,0
1539624109.879,20.996,37.598,30.273,30.762,-32.227,0
1539624109.883,23.438,37.109,33.691,26.855,77.148,0
1539624109.887,23.438,38.574,34.180,20.996,107.910,0
1539624109.891,21.973,40.527,33.691,19.043,69.336,0
1539624109.895,25.879,38.574,35.156,25.879,31.738,0
1539624109.898,38.574,40.039,36.133,31.738,55.176,0
1539624109.902,33.203,36.133,38.574,20.996,57.129,0
1539624109.906,26.855,32.715,39.062,18.066,11.230,0
1539624109.910,24.414,34.668,36.133,22.461,7.324,0
1539624109.914,15.625,36.133,34.180,22.461,51.758,0
1539624109.918,24.902,39.551,36.621,21.973,21.484,0
1539624109.922,30.762,40.039,34.668,20.996,-4.395,0
1539624109.926,22.461,37.109,35.645,24.414,27.832,0
1539624109.930,19.043,37.598,40.039,28.320,17.578,0
1539624109.934,28.809,39.062,38.574,32.227,42.969,0
1539624109.938,29.297,36.133,35.645,28.320,55.176,0
1539624109.941,29.785,37.598,31.738,23.926,44.922,0
1539624109.945,34.668,40.527,31.250,28.809,28.809,0
1539624109.949,35.156,38.574,35.645,33.691,80.078,0
1539624109.953,34.668,32.227,37.598,35.156,100.098,0
1539624109.957,36.133,29.297,38.086,37.598,45.898,0
1539624109.961,39.062,32.227,36.621,36.621,38.574,0
1539624109.965,37.109,32.227,37.109,36.133,66.895,0
1539624109.969,31.250,34.180,38.574,36.133,65.918,0
1539624109.973,27.344,38.086,38.086,26.855,7.324,0
1539624109.977,29.785,41.016,37.598,22.461,12.207,0
1539624109.980,33.203,40.039,38.086,20.508,40.527,0
1539624109.984,29.785,35.645,35.645,13.184,29.785,0
1539624109.988,22.461,34.668,33.203,11.719,46.387,0
1539624109.992,22.461,30.762,32.715,15.137,20.020,0
1539624109.996,26.367,31.250,34.180,19.531,-13.184,0
1539624110.000,26.367,36.621,35.645,15.137,-4.395,0
1539624110.004,22.949,36.621,36.133,13.184,-5.859,0
1539624110.008,22.949,38.574,36.133,18.555,7.324,0
1539624110.012,26.367,43.945,34.668,20.996,0.000,0
1539624110.016,30.273,43.457,35.156,27.832,-22.949,0
1539624110.020,31.250,36.621,38.086,33.691,31.250,0
1539624110.023,35.156,39.062,43.457,33.691,74.707,0
1539624110.027,31.738,43.945,37.109,34.180,28.809,0
1539624110.031,28.320,38.574,31.250,31.250,23.438,0
1539624110.035,34.180,31.250,38.574,32.715,37.598,0
1539624110.039,41.504,33.691,41.992,39.551,44.434,0
1539624110.043,47.852,40.527,42.480,34.668,55.664,0
1539624110.047,43.945,40.039,41.992,32.715,16.113,0
1539624110.051,35.645,37.598,41.504,34.180,35.156,0
1539624110.055,33.203,39.551,40.039,36.621,43.945,0
1539624110.059,32.227,37.109,39.551,34.668,2.441,0
1539624110.063,30.273,35.645,40.527,31.250,-4.395,0
1539624110.066,36.133,41.016,41.016,36.621,18.555,0
1539624110.070,39.551,41.504,42.480,34.668,-7.324,0
1539624110.074,34.180,36.133,41.016,29.785,14.648,0
1539624110.078,37.109,34.180,40.039,31.250,67.871,0
1539624110.082,41.016,32.227,36.133,30.273,46.387,0
1539624110.086,42.969,33.203,35.645,24.902,28.809,0
1539624110.090,44.434,35.156,39.062,21.484,15.625,0
1539624110.094,35.156,34.180,37.109,22.949,33.203,0
1539624110.098,35.645,36.621,37.109,25.391,20.020,0
1539624110.102,39.062,38.086,42.480,28.809,2.441,0
1539624110.105,30.762,36.133,45.898,29.785,44.434,0
1539624110.109,23.926,34.180,41.504,31.738,55.664,0
1539624110.113,26.855,34.668,40.527,34.668,54.688,0
1539624110.117,35.645,40.039,45.410,37.598,53.223,0
1539624110.121,35.156,43.457,44.922,33.203,17.578,0
1539624110.125,38.574,34.668,39.062,32.227,-3.418,0
1539624110.129,37.598,36.621,35.156,34.180,20.508,0
1539624110.133,20.508,41.016,34.668,12.695,32.715,0
1539624110.137,18.555,34.668,34.180,3.418,45.410,0
1539624110.141,26.855,36.133,36.133,18.066,37.109,0
1539624110.145,19.531,37.598,32.227,16.113,0.488,0
1539624110.148,18.555,34.180,29.297,17.578,41.992,0
1539624110.152,20.508,32.227,34.180,24.902,29.785,0
1539624110.156,21.484,33.691,37.109,27.832,0.488,0
1539624110.160,30.273,36.133,41.992,34.668,13.672,0
1539624110.164,29.785,32.715,43.945,35.645,-5.371,0
1539624110.168,23.926,29.785,40.527,34.180,26.367,0
1539624110.172,28.809,36.133,41.992,45.898,77.637,0
1539624110.176,39.551,41.016,38.574,51.270,68.848,0
1539624110.180,34.180,38.086,39.062,42.480,10.742,0
1539624110.184,32.715,36.621,41.504,42.480,19.531,0
1539624110.188,36.621,39.551,40.527,40.039,58.594,0
1539624110.191,35.645,41.992,43.945,35.645,55.664,0
1539624110.195,35.156,40.527,44.434,38.086,44.434,0
1539624110.199,28.320,36.133,46.875,38.086,30.273,0
1539624110.203,23.926,34.180,51.758,39.551,39.551,0
1539624110.207,27.832,33.691,49.316,39.062,71.777,0
1539624110.211,34.180,32.715,41.016,37.598,108.887,0
1539624110.215,33.691,37.109,34.180,40.527,73.730,0
1539624110.219,32.227,43.457,32.715,38.574,-28.809,0
1539624110.223,26.855,40.039,34.668,32.227,2.441,0
1539624110.227,24.414,37.109,34.180,28.809,65.430,0
1539624110.230,29.297,41.016,34.180,31.250,36.621,0
1539624110.234,26.855,46.387,41.992,36.133,28.809,0
1539624110.238,23.926,50.781,42.969,29.297,43.945,0
1539624110.242,23.438,46.875,39.551,21.484,52.734,0
1539624110.246,20.508,34.668,37.598,23.438,30.273,0
1539624110.250,20.020,30.273,35.156,25.391,23.926,0
1539624110.254,23.926,35.156,36.133,22.949,23.438,0
1539624110.258,24.414,34.180,38.574,21.973,21.973,0
1539624110.262,28.809,35.156,37.109,23.926,24.902,0
1539624110.266,36.133,36.621,37.598,23.438,8.301,0
1539624110.270,35.645,41.016,41.504,23.926,33.691,0
1539624110.273,27.344,40.527,40.039,22.461,16.602,0
1539624110.277,25.879,36.133,37.598,27.344,-9.766,0
1539624110.281,33.203,37.598,39.062,33.203,12.695,0
1539624110.285,35.645,40.039,39.551,34.180,40.039,1
1539624110.289,36.621,40.039,40.039,39.062,38.574,0
1539624110.293,28.320,35.156,43.457,41.504,-22.949,0
1539624110.297,20.508,35.645,45.898,38.574,10.742,0
1539624110.301,18.066,39.551,43.457,35.156,44.922,0
1539624110.305,23.926,39.551,38.086,32.227,13.184,0
1539624110.309,24.902,35.156,38.086,28.320,45.410,0
1539624110.313,18.066,33.691,40.039,31.738,15.625,0
1539624110.316,26.855,36.621,39.551,31.738,-6.348,0
1539624110.320,27.344,36.133,37.598,23.926,20.996,0
1539624110.324,24.902,34.180,37.598,24.414,32.715,0
1539624110.328,33.203,34.180,39.551,18.555,48.340,0
1539624110.332,29.785,33.691,38.574,12.207,38.086,0
1539624110.336,26.855,32.227,39.551,19.043,88.379,0
1539624110.340,37.109,33.691,40.039,31.250,83.984,0
1539624110.344,41.992,33.691,40.039,33.691,5.859,0
1539624110.348,35.645,32.715,41.504,28.809,46.875,0
1539624110.352,33.203,37.598,41.016,30.762,80.078,0
1539624110.355,29.297,40.527,41.504,34.180,72.754,0
1539624110.359,30.273,39.062,44.922,34.668,62.988,0
1539624110.363,36.133,37.598,41.992,35.156,69.824,0
1539624110.367,40.527,37.598,38.086,38.086,22.461,0
1539624110.371,38.086,37.598,40.039,35.645,-1.465,0
1539624110.375,26.367,39.062,40.527,28.809,61.035,0
1539624110.379,33.691,40.527,38.086,32.227,64.941,0
1539624110.383,36.133,42.480,38.086,37.109,58.594,0
1539624110.387,32.227,42.969,38.086,35.645,88.379,0
1539624110.391,31.250,38.574,38.086,38.574,22.949,0
1539624110.395,28.809,36.133,42.480,38.574,-2.441,0
1539624110.398,40.039,38.574,42.969,36.133,49.805,0
1539624110.402,39.062,39.062,36.133,34.180,36.133,0
1539624110.406,37.109,39.062,32.227,32.715,33.203,0
1539624110.410,40.039,42.480,31.250,34.180,-14.160,0
1539624110.414,26.855,41.016,30.273,28.320,0.488,0
1539624110.418,28.320,38.574,33.203,28.320,-22.949,0
1539624110.422,31.738,39.062,33.691,28.320,-5.859,0
1539624110.426,20.020,34.668,33.203,23.438,31.250,0
1539624110.430,21.484,33.691,34.668,25.879,16.602,0
1539624110.434,28.809,36.133,34.668,27.832,57.129,0
1539624110.438,29.297,32.715,37.109,24.902,64.453,0
1539624110.441,26.855,33.691,37.109,23.926,89.355,0
1539624110.445,27.344,34.180,37.109,24.902,62.988,0
1539624110.449,22.949,33.203,39.551,24.414,17.090,0
1539624110.453,18.555,35.645,36.133,18.555,-14.160,0
1539624110.457,22.461,36.133,35.156,20.020,-30.273,0
1539624110.461,23.438,34.668,40.039,20.508,44.922,0
1539624110.465,23.438,34.668,37.598,18.555,71.777,0
1539624110.469,23.438,36.133,33.203,24.414,-4.395,0
1539624110.473,27.344,41.016,31.738,22.949,16.113,0
1539624110.477,27.344,38.086,29.785,19.043,70.312,0
1539624110.480,22.461,31.738,31.738,18.066,55.176,0
1539624110.484,22.461,33.203,32.715,18.066,29.297,0
1539624110.488,28.320,34.180,33.203,19.531,26.367,0
1539624110.492,23.438,33.691,37.598,18.066,-8.301,0
1539624110.496,19.531,36.621,37.598,12.207,20.996,0
1539624110.500,22.461,36.133,37.109,14.160,58.105,0
1539624110.504,19.043,31.738,38.574,18.555,21.484,0
1539624110.508,17.578,31.250,32.715,14.648,-5.371,0
1539624110.512,17.090,31.738,33.691,12.207,70.801,0
1539624110.516,22.949,35.645,37.109,16.113,128.906,0
1539624110.520,23.926,41.992,36.621,22.461,89.355,0
1539624110.523,23.926,39.062,40.039,29.297,7.812,0
1539624110.527,27.344,34.180,31.738,30.762,7.812,0
1539624110.531,18.555,35.156,23.926,24.414,56.641,0
1539624110.535,20.996,35.156,29.785,26.367,0.488,0
1539624110.539,27.344,34.180,32.227,31.250,3.906,0
1539624110.543,30.762,29.297,32.227,30.273,16.602,0
1539624110.547,30.762,25.391,34.180,32.227,-15.625,0
1539624110.551,32.227,28.320,40.039,34.180,29.785,0
1539624110.555,27.832,26.855,41.504,27.832,41.016,0
1539624110.559,23.926,29.297,40.527,25.391,38.086,0
1539624110.563,19.043,35.645,40.039,30.273,-3.906,0
1539624110.566,16.113,29.785,36.621,29.785,-5.859,0
1539624110.570,19.531,22.949,33.691,29.785,-1.953,0
1539624110.574,15.137,23.438,34.668,26.367,-37.598,0
1539624110.578,14.160,28.320,35.645,24.902,1.465,0
1539624110.582,17.578,32.227,38.574,28.320,27.832,0
1539624110.586,18.066,31.250,36.621,30.273,68.359,0
1539624110.590,21.484,30.273,27.832,28.809,90.820,0
1539624110.594,28.809,35.156,27.344,27.832,42.969,0
1539624110.598,35.645,36.133,31.738,32.715,-7.812,0
1539624110.602,31.250,31.738,30.762,29.297,22.949,0
1539624110.605,21.484,29.785,30.273,28.320,48.340,0
1539624110.609,25.879,25.879,29.297,34.668,39.551,0
1539624110.613,28.320,26.855,27.344,32.227,2.441,0
1539624110.617,25.879,28.809,31.738,30.273,12.695,0
1539624110.621,25.391,30.273,37.109,33.203,41.992,0
1539624110.625,29.785,34.668,35.156,34.668,4.395,0
1539624110.629,31.738,34.668,32.227,32.227,13.184,0
1539624110.633,23.438,34.180,34.180,34.180,11.719,0
1539624110.637,25.879,36.133,38.574,34.668,31.738,0
1539624110.641,24.414,35.156,38.086,30.273,46.387,0
1539624110.645,18.555,31.738,32.715,27.344,77.148,0
1539624110.648,20.020,26.367,32.227,28.809,36.621,0
1539624110.652,27.832,27.832,33.203,40.039,7.812,0
1539624110.656,26.855,34.668,32.227,29.297,28.809,0
1539624110.660,12.207,32.227,30.273,8.301,12.207,0
1539624110.664,13.672,27.832,30.762,11.230,73.730,0
1539624110.668,19.043,28.320,28.320,13.184,127.930,0
1539624110.672,13.672,28.320,24.414,9.277,43.457,0
1539624110.676,5.371,31.250,31.250,3.418,7.812,0
1539624110.680,7.324,32.227,38.086,7.812,9.277,0
1539624110.684,11.719,30.762,33.691,17.578,-14.160,0
1539624110.688,6.348,31.250,30.762,7.324,11.719,0
1539624110.691,12.207,30.762,34.180,5.371,-13.672,0
1539624110.695,20.020,34.180,35.645,15.625,42.969,0
1539624110.699,26.367,36.621,35.645,16.113,39.062,0
1539624110.703,30.762,36.133,35.645,18.555,-15.137,0
1539624110.707,22.949,35.645,35.156,18.066,58.105,0
1539624110.711,11.230,34.180,35.156,16.113,93.750,0
1539624110.715,8.301,34.668,37.598,17.578,83.008,0
1539624110.719,14.160,38.086,36.133,18.555,85.449,0
1539624110.723,20.996,37.598,33.203,18.066,29.297,0
1539624110.727,20.508,29.785,34.668,12.207,-18.066,0
1539624110.730,18.066,27.344,35.645,7.812,6.836,0
1539624110.734,23.926,31.250,37.598,10.254,62.012,0
1539624110.738,27.832,33.203,40.039,15.137,84.473,0
1539624110.742,30.273,32.715,34.668,17.578,73.730,0
1539624110.746,30.273,35.645,30.273,16.602,66.406,0
1539624110.750,29.297,33.691,30.762,17.578,-5.859,0
1539624110.754,26.855,32.715,30.273,15.625,12.695,0
1539624110.758,29.785,37.598,33.203,14.648,11.230,0
1539624110.762,34.180,38.574,26.367,19.531,-2.930,0
1539624110.766,26.855,37.109,25.391,20.020,19.531,0
1539624110.770,26.367,37.109,34.180,21.973,0.000,0
1539624110.773,37.109,42.480,39.062,27.832,21.973,0
1539624110.777,32.715,43.457,41.992,30.762,55.176,0
1539624110.781,24.414,38.086,39.062,31.250,42.480,0
1539624110.785,31.250,36.621,38.574,33.203,24.902,0
1539624110.789,39.551,38.086,40.527,36.621,36.621,0
1539624110.793,37.109,39.062,41.016,35.645,-18.066,0
1539624110.797,29.297,39.062,39.551,28.320,7.324,0
1539624110.801,29.785,39.551,40.527,32.227,59.570,0
1539624110.805,32.227,37.109,38.574,33.203,11.230,0
1539624110.809,32.715,34.668,33.691,27.832,21.973,0
1539624110.813,27.832,34.668,34.180,30.762,70.312,0
1539624110.816,28.320,36.133,36.133,35.156,55.176,0
1539624110.820,35.156,41.016,36.133,37.109,18.066,0
1539624110.824,34.668,41.992,40.039,38.574,73.242,0
1539624110.828,36.621,39.062,35.645,38.086,94.238,0
1539624110.832,39.551,39.062,34.668,34.180,13.184,0
1539624110.836,35.645,40.527,30.273,27.832,8.301,0
1539624110.840,29.785,38.574,28.320,27.832,49.316,0
1539624110.844,24.902,37.598,41.992,28.809,27.344,0
1539624110.848,28.809,35.156,41.992,28.320,35.645,0
1539624110.852,28.809,32.715,34.668,29.785,22.949,0
1539624110.855,20.508,33.203,30.762,27.344,-22.461,0
1539624110.859,23.926,30.273,30.762,24.414,8.301,0
1539624110.863,29.297,32.715,29.785,22.461,50.781,0
1539624110.867,29.785,34.668,30.762,26.855,28.320,0
1539624110.871,20.508,37.598,33.691,23.926,7.324,0
1539624110.875,22.949,37.598,36.621,15.137,-17.578,0
1539624110.879,27.832,33.203,35.645,20.020,-9.277,0
1539624110.883,28.320,33.691,35.645,22.949,53.223,0
1539624110.887,25.391,35.156,40.527,24.414,34.668,0
1539624110.891,21.484,36.621,41.504,29.297,10.742,0
1539624110.895,25.879,36.133,43.945,31.738,27.344,0
1539624110.898,31.738,36.621,42.969,33.203,1.465,0
1539624110.902,32.227,39.551,42.480,26.855,45.898,0
1539624110.906,30.273,41.504,42.480,24.902,50.781,0
1539624110.910,32.227,42.969,37.598,25.879,30.762,0
1539624110.914,35.645,43.457,34.668,31.250,41.992,0
1539624110.918,23.926,44.434,37.109,32.715,-32.227,0
1539624110.922,17.578,43.945,41.504,28.809,-24.414,0
1539624110.926,28.320,38.574,45.410,31.250,33.203,0
1539624110.930,29.785,34.180,45.898,30.762,13.672,0
1539624110.934,27.832,35.645,38.086,31.738,9.766,0
1539624110.938,28.320,38.086,42.480,30.762,53.223,0
1539624110.941,30.273,39.062,49.805,30.762,26.855,0
1539624110.945,27.344,37.598,47.363,31.250,2.930,0
1539624110.949,23.926,34.180,43.945,27.832,41.504,0
1539624110.953,23.438,34.668,43.457,24.902,31.738,0
1539624110.957,20.996,34.180,46.875,24.902,-6.836,0
1539624110.961,20.508,33.691,42.969,22.461,17.090,0
1539624110.965,28.320,37.109,41.992,24.902,30.273,0
1539624110.969,30.762,40.039,41.992,29.297,65.918,0
1539624110.973,32.227,41.504,41.992,36.133,39.062,0
1539624110.977,37.109,41.992,40.039,36.621,32.227,0
1539624110.980,37.109,37.109,37.598,34.180,51.270,0
1539624110.984,39.062,35.156,44.434,39.551,74.707,0
1539624110.988,38.574,38.086,47.363,33.691,55.664,0
1539624110.992,34.668,36.621,48.828,25.391,-28.809,0
1539624110.996,32.715,37.109,47.852,31.738,-24.902,0
1539624111.000,31.250,38.086,44.434,33.203,36.621,0
1539624111.004,29.297,37.109,41.504,32.227,116.211,0
1539624111.008,31.738,38.086,39.551,37.598,108.887,0
1539624111.012,34.668,40.527,41.504,39.062,52.246,0
1539624111.016,37.598,41.504,42.969,35.645,57.129,0
1539624111.020,36.621,42.480,32.715,37.598,15.625,0
1539624111.023,36.621,41.504,34.668,30.762,15.625,0
1539624111.027,32.227,38.086,42.969,20.020,36.621,0
1539624111.031,29.785,42.480,41.504,20.020,13.184,0
1539624111.035,30.273,43.945,41.016,20.996,4.395,0
1539624111.039,26.367,38.574,36.621,20.508,-2.441,0
1539624111.043,28.809,35.156,38.574,24.902,3.418,0
1539624111.047,27.344,34.180,41.504,23.438,7.324,0
1539624111.051,28.320,35.156,42.480,20.996,15.625,0
1539624111.055,26.855,38.086,41.992,25.879,29.785,0
1539624111.059,26.855,40.039,40.527,29.297,62.012,0
1539624111.063,32.715,41.504,41.016,28.320,96.191,0
1539624111.066,33.203,38.574,42.480,29.785,9.277,0
1539624111.070,29.297,33.691,39.062,26.855,12.695,0
1539624111.074,34.180,35.156,37.598,25.391,54.688,0
1539624111.078,41.992,37.598,41.016,24.902,71.777,0
1539624111.082,34.668,41.016,39.062,17.578,64.941,0
1539624111.086,30.273,45.410,35.645,19.531,39.551,0
1539624111.090,34.668,41.992,28.809,24.902,27.832,0
1539624111.094,30.762,36.133,29.297,23.926,16.113,0
1539624111.098,25.391,35.156,39.062,21.973,32.227,0
1539624111.102,27.832,34.180,41.504,22.461,14.648,0
1539624111.105,30.762,32.715,39.062,26.855,21.973,0
1539624111.109,21.484,33.691,36.133,26.367,17.578,0
1539624111.113,22.461,32.715,41.016,25.879,6.836,0
1539624111.117,28.809,33.203,42.480,32.715,49.316,0
1539624111.121,34.668,35.645,42.480,36.133,56.152,0
1539624111.125,40.039,35.645,43.945,38.086,35.645,0
1539624111.129,35.156,36.621,38.086,36.621,59.570,0
1539624111.133,39.551,39.062,34.180,37.598,59.570,0
1539624111.137,37.598,41.992,36.133,42.969,42.969,0
1539624111.141,23.926,42.480,36.621,39.062,55.176,0
1539624111.145,25.879,39.062,36.621,33.203,70.312,0
1539624111.148,31.738,36.621,40.039,33.691,46.875,0
1539624111.152,32.227,33.691,38.574,33.691,42.969,0
1539624111.156,33.203,33.691,35.645,33.691,18.066,0
1539624111.160,37.109,39.062,36.133,35.156,19.043,0
1539624111.164,39.551,42.969,39.062,28.320,61.523,0
1539624111.168,38.086,42.969,34.668,21.973,64.453,0
1539624111.172,31.250,39.551,25.879,16.602,36.133,0
1539624111.176,22.949,41.504,34.180,14.160,69.336,0
1539624111.180,23.438,41.992,37.598,17.090,69.336,0
1539624111.184,24.414,39.062,33.691,15.625,-17.578,0
1539624111.188,24.902,38.086,36.133,17.578,7.324,0
1539624111.191,26.855,38.574,36.133,28.809,90.820,0
1539624111.195,22.461,39.062,34.180,33.691,76.660,0
1539624111.199,23.438,38.574,34.668,30.273,30.273,0
1539624111.203,25.391,34.180,37.109,32.227,3.418,0
1539624111.207,25.391,30.762,35.156,33.691,2.441,0
1539624111.211,24.902,35.645,30.273,31.250,23.926,0
1539624111.215,23.926,37.109,29.297,30.273,47.363,0
1539624111.219,28.320,39.551,28.320,33.203,41.016,0
1539624111.223,31.250,44.922,29.297,36.621,75.195,0
1539624111.227,31.738,41.504,33.691,37.598,84.473,0
1539624111.230,32.715,37.109,36.621,37.109,47.852,0
1539624111.234,31.250,37.109,37.598,32.715,6.836,0
1539624111.238,27.344,40.039,38.086,28.809,-26.367,0
1539624111.242,24.902,42.480,38.574,29.297,-29.297,0
1539624111.246,23.926,42.969,32.227,25.879,-3.906,0
1539624111.250,22.461,37.109,23.438,22.949,27.832,0
1539624111.254,22.949,34.180,33.203,23.926,62.012,0
1539624111.258,22.461,36.133,41.016,20.996,35.156,0
1539624111.262,18.066,33.203,38.574,18.555,13.184,0
1539624111.266,19.531,33.691,39.551,19.531,0.488,0
1539624111.270,27.344,35.645,40.527,20.020,34.180,0
1539624111.273,32.715,38.574,39.062,23.438,50.781,0
1539624111.277,30.762,42.969,39.062,31.738,54.199,0
1539624111.281,22.949,38.086,41.992,33.203,41.992,0
1539624111.285,21.484,34.668,41.016,29.785,-11.230,0
1539624111.289,28.809,37.598,36.621,29.297,-24.902,0
1539624111.293,37.109,42.480,36.621,33.203,-26.367,0
1539624111.297,32.715,45.898,37.598,30.273,33.691,0
1539624111.301,33.691,43.945,38.086,22.949,134.766,0
1539624111.305,36.133,40.039,38.086,20.020,66.406,0
1539624111.309,32.715,37.109,36.133,21.484,-31.738,0
1539624111.313,26.367,35.645,36.621,21.484,27.344,0
1539624111.316,24.414,34.668,34.180,18.555,65.918,0
1539624111.320,24.414,36.133,31.250,18.066,15.137,0
1539624111.324,24.414,36.133,34.668,14.648,3.906,0
1539624111.328,20.996,38.086,41.504,11.719,31.738,0
1539624111.332,16.113,39.062,38.086,13.672,11.230,0
1539624111.336,18.066,36.621,38.574,15.625,-19.531,0
1539624111.340,21.973,37.109,43.457,16.602,-3.906,0
1539624111.344,29.297,36.133,44.922,20.508,-20.508,0
1539624111.348,22.949,35.156,51.270,20.020,-8.789,0
1539624111.352,14.648,40.039,44.434,13.184,-19.531,0
1539624111.355,10.254,37.109,33.691,9.766,-23.438,0
1539624111.359,17.578,31.738,34.668,15.137,2.441,0
1539624111.363,20.996,34.180,31.738,14.648,32.715,0
1539624111.367,19.043,35.156,30.273,20.020,6.836,0
1539624111.371,29.297,35.156,32.715,31.738,11.719,0
1539624111.375,33.203,36.133,30.762,27.344,29.297,0
1539624111.379,36.133,38.086,31.250,29.297,-4.883,0
1539624111.383,35.645,40.039,36.133,38.574,-11.719,0
1539624111.387,30.273,38.086,38.574,36.133,30.273,0
1539624111.391,35.156,37.598,41.016,33.203,39.062,0
1539624111.395,41.016,39.062,41.504,33.691,21.973,0
1539624111.398,39.062,40.527,42.480,29.785,50.293,0
1539624111.402,34.668,40.039,43.945,29.785,38.086,0
1539624111.406,29.297,35.156,39.551,30.762,8.301,0
1539624111.410,27.344,33.203,37.109,24.414,8.789,0
1539624111.414,29.297,37.109,34.180,27.344,54.199,0
1539624111.418,28.320,41.992,37.109,33.203,30.762,0
1539624111.422,30.762,46.387,41.016,32.227,-9.277,0
1539624111.426,30.762,46.387,41.504,36.133,34.668,0
1539624111.430,37.598,43.457,41.992,42.969,35.156,0
1539624111.434,46.875,46.387,41.016,42.969,41.504,0
1539624111.438,36.133,40.039,43.945,38.086,31.738,0
1539624111.441,33.691,33.203,42.480,32.715,-20.020,0
1539624111.445,35.645,33.691,36.621,29.785,22.461,0
1539624111.449,30.762,37.598,33.203,29.297,48.828,0
1539624111.453,32.227,38.574,33.691,23.926,55.664,0
1539624111.457,29.297,37.598,34.180,20.996,20.508,0
1539624111.461,20.996,41.016,29.785,26.855,-19.531,0
1539624111.465,27.832,43.945,27.832,29.297,32.227,0
1539624111.469,37.109,43.457,32.715,29.785,39.062,0
1539624111.473,30.273,42.969,33.691,26.367,30.762,0
1539624111.477,36.621,43.457,35.156,28.809,87.402,0
1539624111.480,41.992,40.039,35.156,28.809,61.523,0
1539624111.484,39.551,35.645,30.273,26.855,48.340,0
1539624111.488,39.551,38.574,36.133,29.297,24.414,0
1539624111.492,35.156,40.527,42.969,25.879,15.625,0
1539624111.496,39.062,40.039,41.504,27.832,48.828,0
1539624111.500,34.180,37.109,43.457,24.902,3.906,0
1539624111.504,22.949,36.621,49.805,23.438,47.363,0
1539624111.508,30.762,37.109,48.340,32.715,75.684,0
1539624111.512,26.855,36.621,42.969,29.297,11.230,0
1539624111.516,22.949,39.551,39.551,27.344,8.789,0
1539624111.520,29.297,38.086,39.551,32.715,11.230,0
1539624111.523,27.832,36.133,38.086,30.762,47.852,0
1539624111.527,30.273,37.109,41.504,31.738,80.078,0
1539624111.531,31.250,36.621,44.434,33.203,33.203,0
1539624111.535,32.227,37.109,44.922,34.668,-22.949,0
1539624111.539,37.598,36.621,48.828,38.086,-5.859,0
1539624111.543,41.992,39.062,47.852,31.738,39.551,0
1539624111.547,33.691,38.086,42.480,22.461,44.922,0
1539624111.551,32.715,45.410,41.992,26.367,67.871,0
1539624111.555,40.039,54.688,42.480,29.785,35.156,0
1539624111.559,38.574,49.316,39.551,21.973,41.992,0
1539624111.563,28.809,44.434,35.645,20.996,74.219,0
1539624111.566,29.785,43.945,36.133,26.367,40.039,0
1539624111.570,30.762,46.875,40.527,25.879,19.043,0
1539624111.574,36.621,45.898,44.434,23.926,-17.578,0
1539624111.578,39.062,44.922,44.922,23.926,-35.645,0
1539624111.582,32.715,42.969,42.480,19.531,9.277,0
1539624111.586,41.992,40.527,38.574,14.648,21.973,0
1539624111.590,39.062,41.992,37.598,10.742,33.691,0
1539624111.594,23.438,38.574,39.062,12.695,58.594,0
1539624111.598,28.809,35.156,37.109,23.438,9.766,0
1539624111.602,28.809,37.109,35.156,22.461,13.184,0
1539624111.605,23.438,41.016,40.039,20.996,71.777,0
1539624111.609,28.320,42.969,41.992,27.344,34.668,0
1539624111.613,31.250,41.992,39.551,27.344,-0.488,0
1539624111.617,26.855,39.062,38.086,27.344,19.043,0
1539624111.621,22.461,37.598,39.551,28.809,68.848,0
1539624111.625,25.391,37.598,41.504,25.879,108.398,0
1539624111.629,34.180,41.504,42.969,34.180,64.941,0
1539624111.633,34.180,42.480,43.945,36.133,62.988,0
1539624111.637,29.297,38.086,42.480,26.855,71.777,0
1539624111.641,26.855,38.574,37.598,22.949,-0.977,0
1539624111.645,34.180,40.039,32.227,25.391,-7.812,0
1539624111.648,31.738,40.527,29.785,23.438,28.809,0
1539624111.652,12.695,34.668,33.203,17.578,40.527,0
1539624111.656,9.766,34.668,39.062,16.602,-6.836,0
1539624111.660,17.090,40.527,38.086,24.414,12.695,0
1539624111.664,22.461,38.574,39.062,30.762,68.848,0
1539624111.668,27.832,36.621,38.086,31.738,43.945,0
1539624111.672,33.203,35.645,35.645,31.250,-2.930,0
1539624111.676,39.551,35.156,38.574,31.250,-7.812,0
1539624111.680,41.016,35.645,38.574,30.762,38.086,0
1539624111.684,34.180,33.203,37.598,31.250,68.848,1
1539624111.688,29.297,32.227,33.691,31.250,31.738,0
1539624111.691,26.367,35.645,29.297,29.297,23.438,0
1539624111.695,26.367,36.621,33.691,29.785,58.594,0
1539624111.699,36.621,37.109,37.598,35.645,57.129,0
1539624111.703,39.062,42.480,37.598,33.203,16.602,0
1539624111.707,33.691,40.039,38.086,32.715,35.645,0
1539624111.711,28.320,38.086,36.621,31.250,63.965,0
1539624111.715,22.949,37.109,39.062,21.484,20.020,0
1539624111.719,28.809,39.062,42.969,26.367,3.418,0
1539624111.723,31.738,41.016,41.992,33.691,-6.836,0
1539624111.727,26.855,36.621,38.574,31.250,-1.953,0
1539624111.730,23.926,36.621,36.133,29.785,42.969,0
1539624111.734,29.785,39.062,36.133,27.832,39.551,0
1539624111.738,38.086,40.039,41.504,26.855,12.695,0
1539624111.742,31.738,34.180,42.969,23.438,6.836,0
1539624111.746,26.855,33.691,37.109,21.973,-9.766,0
1539624111.750,28.809,35.645,34.668,25.879,-1.465,0
1539624111.754,22.461,32.227,38.086,24.902,53.223,0
1539624111.758,16.113,28.320,37.598,23.926,32.715,0
1539624111.762,20.996,29.785,37.598,26.367,54.688,0
1539624111.766,30.762,38.086,38.086,25.879,43.457,0
1539624111.770,34.180,35.645,39.551,31.738,47.363,0
1539624111.773,26.367,28.809,45.898,35.645,103.027,0
1539624111.777,28.809,31.250,44.922,33.203,72.754,0
1539624111.781,38.574,36.133,35.645,33.691,29.297,0
1539624111.785,35.645,39.062,37.109,32.227,-12.695,0
1539624111.789,32.227,38.574,41.016,34.180,27.832,0
1539624111.793,34.668,33.203,38.574,33.203,31.250,0
1539624111.797,38.086,32.715,43.945,28.320,40.039,0
1539624111.801,33.691,29.785,47.363,29.297,35.645,0
1539624111.805,22.949,23.438,40.527,28.320,24.902,0
1539624111.809,20.508,26.855,38.086,24.414,29.785,0
1539624111.813,29.785,32.715,38.574,25.879,32.227,0
1539624111.816,34.180,37.598,34.180,29.785,45.898,0
1539624111.820,30.273,37.109,31.738,27.832,45.898,0
1539624111.824,41.992,34.668,33.691,29.785,41.016,0
1539624111.828,39.062,38.574,36.621,31.738,56.152,0
1539624111.832,25.879,36.621,39.551,27.832,57.617,0
1539624111.836,34.180,32.227,39.062,26.855,4.883,0
1539624111.840,40.527,34.668,38.574,32.715,22.949,0
1539624111.844,25.391,36.133,41.016,30.762,89.355,0
1539624111.848,27.344,36.621,40.527,28.320,63.965,0
1539624111.852,42.480,37.109,40.527,34.668,38.086,0
1539624111.855,38.574,41.504,40.039,30.273,87.891,0
1539624111.859,35.156,44.434,35.156,26.855,68.848,0
1539624111.863,38.086,38.086,30.273,28.320,52.246,0
1539624111.867,31.250,32.715,30.762,25.879,13.672,0
1539624111.871,26.367,32.227,33.203,17.090,65.918,0
1539624111.875,25.879,35.156,38.086,17.090,91.309,0
1539624111.879,21.484,36.621,37.598,19.043,56.641,0
1539624111.883,26.367,36.621,37.109,19.043,17.578,0
1539624111.887,29.785,37.109,42.480,23.438,-15.137,0
1539624111.891,24.902,35.645,40.039,30.273,33.203,0
1539624111.895,25.879,39.062,42.480,34.180,29.785,0
1539624111.898,30.273,45.898,45.410,37.598,33.203,0
1539624111.902,27.344,41.016,38.086,32.715,5.859,0
1539624111.906,20.020,27.832,34.180,24.902,-9.277,0
1539624111.910,20.508,27.344,35.645,24.414,82.031,0
1539624111.914,25.391,32.715,35.645,28.320,8.301,0
1539624111.918,25.391,33.203,37.598,29.297,-13.672,0
1539624111.922,27.832,37.109,41.504,28.320,44.922,0
1539624111.926,35.156,41.504,40.039,37.109,29.297,0
1539624111.930,39.551,42.969,40.527,42.480,41.992,0
1539624111.934,41.504,41.016,45.410,36.621,14.648,0
1539624111.938,42.480,45.898,41.992,41.016,24.414,0
1539624111.941,41.016,45.898,41.504,46.875,10.742,0
1539624111.945,41.016,37.598,41.992,40.527,-20.996,0
1539624111.949,47.363,34.180,40.527,40.527,28.809,0
1539624111.953,52.734,35.156,44.922,45.410,83.984,0
1539624111.957,50.293,37.109,48.340,46.387,47.363,0
1539624111.961,41.016,37.598,45.898,44.922,25.879,0
1539624111.965,38.574,38.574,43.945,41.992,26.367,0
1539624111.969,37.598,42.480,45.410,36.621,42.480,0
1539624111.973,38.574,40.039,47.852,28.809,37.109,0
1539624111.977,36.133,37.598,47.852,20.508,39.062,0
1539624111.980,24.902,37.109,45.898,22.949,51.270,0
1539624111.984,20.996,29.297,42.969,23.926,2.930,0
1539624111.988,23.438,28.320,36.621,23.926,44.922,0
1539624111.992,22.949,33.203,37.109,21.484,107.910,0
1539624111.996,25.879,37.109,41.504,19.531,12.207,0
1539624112.000,30.273,43.945,43.457,26.367,-23.438,0
1539624112.004,36.133,43.945,45.898,32.227,18.066,0
1539624112.008,34.180,38.574,46.875,30.273,15.625,0
1539624112.012,25.879,35.645,38.574,24.902,-5.859,0
1539624112.016,26.855,36.133,29.785,20.508,-3.418,0
1539624112.020,25.879,35.645,35.645,20.996,19.531,0
1539624112.023,28.320,33.203,41.504,22.949,74.219,0
1539624112.027,31.738,37.109,41.504,25.391,69.824,0
1539624112.031,23.926,42.969,39.551,21.973,-7.812,0
1539624112.035,21.973,41.992,41.504,20.508,55.176,0
1539624112.039,26.855,36.621,43.457,27.344,122.559,0
1539624112.043,20.996,31.250,42.969,34.180,44.922,0
1539624112.047,16.602,30.273,42.969,34.180,20.996,0
1539624112.051,19.043,33.691,44.922,27.344,40.527,0
1539624112.055,22.949,35.156,46.875,31.738,9.766,0
1539624112.059,27.344,33.691,46.387,31.738,43.945,0
1539624112.063,25.879,35.156,43.945,25.391,25.879,0
1539624112.066,20.508,32.227,38.574,20.020,58.594,0
1539624112.070,19.531,31.738,35.156,18.555,25.879,0
1539624112.074,22.949,38.574,39.551,24.902,-7.812,0
1539624112.078,24.902,34.668,42.969,26.367,53.223,0
1539624112.082,22.949,29.297,37.598,22.949,34.668,0
1539624112.086,25.391,31.738,34.180,23.926,-10.742,0
1539624112.090,34.668,33.691,36.621,27.344,-24.902,0
1539624112.094,33.691,38.574,37.598,27.832,41.992,0
1539624112.098,35.156,43.457,39.062,28.809,69.824,0
1539624112.102,34.668,42.969,37.109,31.738,75.684,0
1539624112.105,29.297,40.527,36.621,33.691,28.809,0
1539624112.109,26.855,41.992,40.527,26.367,14.160,0
1539624112.113,29.785,43.457,44.434,19.043,47.852,0
1539624112.117,31.738,37.109,45.410,20.508,56.641,0
1539624112.121,21.484,36.133,36.621,23.438,17.578,0
1539624112.125,23.438,40.039,37.598,30.762,4.395,0
1539624112.129,33.203,36.621,37.109,32.227,48.828,0
1539624112.133,31.738,33.203,30.273,27.344,2.930,0
1539624112.137,27.344,34.180,38.574,26.367,-19.043,0
1539624112.141,30.762,37.598,42.969,29.297,-21.484,0
1539624112.145,36.133,41.016,42.480,32.227,-37.598,0
1539624112.148,35.156,37.598,41.992,32.227,14.160,0
1539624112.152,21.973,34.668,42.969,32.715,63.477,0
1539624112.156,18.555,38.574,40.527,32.715,64.453,0
1539624112.160,22.949,40.039,34.180,30.273,91.309,0
1539624112.164,28.320,37.109,34.180,28.320,60.547,0
1539624112.168,34.180,37.598,36.621,28.320,26.855,0
1539624112.172,36.621,35.645,40.527,30.273,31.738,0
1539624112.176,36.621,37.598,46.387,31.250,10.742,0
1539624112.180,39.551,43.945,39.551,31.738,-2.930,0
1539624112.184,43.457,42.480,35.645,40.039,-3.418,0
1539624112.188,39.551,41.016,44.922,45.898,-27.344,0
1539624112.191,40.039,44.434,47.363,42.969,48.340,0
1539624112.195,46.387,44.434,44.434,39.551,132.324,0
1539624112.199,47.363,39.062,40.039,42.480,60.547,0
1539624112.203,43.457,38.574,41.504,40.039,71.777,0
1539624112.207,36.621,35.645,44.922,34.180,76.172,0
1539624112.211,31.250,27.344,43.457,31.250,-9.277,0
1539624112.215,34.180,32.715,46.387,32.715,39.062,0
1539624112.219,37.109,39.551,49.805,35.156,38.086,0
1539624112.223,32.715,32.227,47.852,31.738,38.574,0
1539624112.227,32.227,29.297,46.387,35.645,76.172,0
1539624112.230,28.809,33.203,48.828,32.715,35.645,0
1539624112.234,24.414,34.668,47.363,22.461,4.395,0
1539624112.238,30.762,32.227,41.992,23.926,10.742,0
1539624112.242,41.992,31.250,36.621,38.086,-1.465,0
1539624112.246,52.734,35.645,35.645,43.457,11.719,0
1539624112.250,37.598,40.039,37.109,23.926,-2.930,0
1539624112.254,11.230,40.039,40.039,6.836,4.883,0
1539624112.258,19.043,38.574,40.527,20.508,37.598,0
1539624112.262,39.551,41.016,39.551,41.504,28.809,0
1539624112.266,40.527,41.016,41.016,37.598,-16.113,0
1539624112.270,39.062,36.133,41.504,38.574,59.082,0
1539624112.273,48.340,34.668,42.969,54.199,70.801,0
1539624112.277,45.410,36.133,45.898,52.734,18.555,0
1539624112.281,43.945,36.133,47.852,49.316,64.453,0
1539624112.285,45.410,39.062,49.316,50.293,16.113,0
1539624112.289,42.480,38.086,48.340,49.316,21.484,0
1539624112.293,43.457,41.504,45.898,41.504,73.242,0
1539624112.297,43.457,44.922,47.363,39.551,69.336,0
1539624112.301,42.480,41.992,47.852,45.898,9.766,0
1539624112.305,43.457,41.992,46.387,44.922,22.949,0
1539624112.309,43.457,44.434,42.480,47.363,37.109,0
1539624112.313,41.016,44.922,35.156,42.969,6.836,0
1539624112.316,43.457,40.039,31.738,35.156,4.395,0
1539624112.320,36.621,38.086,32.227,33.691,-10.742,0
1539624112.324,31.250,41.992,32.227,27.832,-47.363,0
1539624112.328,34.668,41.992,34.180,22.949,-11.230,0
1539624112.332,32.715,37.598,32.715,27.344,58.105,0
1539624112.336,35.156,38.574,32.715,32.227,19.531,0
1539624112.340,33.691,37.598,38.086,29.297,18.555,0
1539624112.344,30.273,36.133,37.109,30.273,-3.418,0
1539624112.348,30.762,41.992,34.180,35.645,-15.137,0
1539624112.352,34.180,43.457,36.133,38.086,63.965,0
1539624112.355,37.598,39.062,36.133,34.668,74.219,0
1539624112.359,37.109,35.645,35.645,32.227,36.133,0
1539624112.363,37.109,39.062,36.621,42.480,27.344,0
1539624112.367,42.480,47.852,33.203,46.387,16.113,0
1539624112.371,42.969,50.293,30.273,35.156,33.203,0
1539624112.375,35.156,44.922,31.250,27.344,82.520,0
1539624112.379,34.668,46.387,32.227,33.203,91.309,0
1539624112.383,36.133,46.387,33.203,35.645,78.613,0
1539624112.387,31.738,40.039,29.297,27.344,103.516,0
1539624112.391,29.297,35.645,31.738,24.414,92.773,0
1539624112.395,30.273,37.109,35.645,25.879,34.668,0
1539624112.398,31.738,43.945,34.668,26.855,32.715,0
1539624112.402,33.203,42.969,34.668,27.344,28.320,0
1539624112.406,29.785,40.527,39.062,23.926,-16.602,0
1539624112.410,30.762,42.480,44.922,23.926,39.551,0
1539624112.414,31.250,41.016,39.062,31.250,36.621,0
1539624112.418,27.832,41.992,37.109,27.344,8.301,0
1539624112.422,29.785,43.457,38.574,21.973,100.586,0
1539624112.426,29.785,48.340,35.645,26.855,70.312,0
1539624112.430,26.367,46.387,35.645,25.391,-11.230,0
1539624112.434,25.391,39.551,35.645,25.879,49.316,0
1539624112.438,28.320,40.527,40.039,34.668,53.223,0
1539624112.441,29.297,42.480,43.945,36.621,7.324,0
1539624112.445,27.344,42.480,39.062,31.250,31.250,0
1539624112.449,33.203,42.480,35.156,29.785,30.273,0
1539624112.453,36.621,44.434,34.180,31.250,103.027,0
1539624112.457,29.785,44.922,32.715,27.344,116.211,0
1539624112.461,27.344,40.527,35.156,31.738,4.883,0
1539624112.465,28.320,35.156,39.551,38.574,10.742,0
1539624112.469,27.832,37.598,39.551,35.645,11.719,0
1539624112.473,31.250,41.504,39.062,34.180,24.902,0
1539624112.477,30.762,38.574,43.945,35.645,87.402,0
1539624112.480,24.414,34.180,47.363,38.574,33.691,0
1539624112.484,27.832,37.598,41.504,41.016,-15.625,0
1539624112.488,36.621,44.922,37.598,37.598,-20.508,0
1539624112.492,43.457,45.898,37.598,34.180,55.664,0
1539624112.496,45.410,42.969,39.551,41.992,89.844,0
1539624112.500,40.527,41.992,35.156,47.852,-36.621,0
1539624112.504,32.715,47.363,37.109,47.852,-22.949,0
1539624112.508,32.227,47.363,43.457,42.480,37.598,0
1539624112.512,35.645,39.551,43.945,39.062,-36.621,0
1539624112.516,33.203,29.785,44.922,40.039,-20.020,0
1539624112.520,29.785,30.273,43.945,39.551,22.949,0
1539624112.523,30.273,34.668,41.016,33.691,18.555,0
1539624112.527,29.785,36.133,38.574,35.156,0.977,0
1539624112.531,25.391,34.668,43.457,33.203,2.441,0
1539624112.535,24.414,35.156,38.574,27.832,42.480,0
1539624112.539,24.902,37.109,30.273,24.414,-10.254,0
1539624112.543,26.855,40.527,39.062,27.344,26.855,0
1539624112.547,35.645,43.457,38.574,36.621,28.809,0
1539624112.551,42.969,43.457,36.133,34.668,-22.461,0
1539624112.555,35.645,42.480,39.551,26.855,0.977,0
1539624112.559,31.738,39.062,34.180,23.438,32.227,0
1539624112.563,32.715,39.551,30.762,22.461,56.152,0
1539624112.566,32.715,39.551,35.645,20.996,26.855,0
1539624112.570,32.227,41.992,37.598,22.949,-14.160,0
1539624112.574,35.156,44.434,37.109,28.809,13.672,0
1539624112.578,37.598,43.945,37.598,29.297,30.273,0
1539624112.582,32.227,42.969,37.598,26.367,-0.977,0
1539624112.586,32.715,45.410,37.109,28.320,-54.688,0
1539624112.590,30.762,46.875,40.039,25.391,-12.207,0
1539624112.594,28.320,38.574,42.480,18.066,40.527,0
1539624112.598,27.832,38.086,38.574,22.461,28.320,0
1539624112.602,29.297,44.434,34.180,31.250,47.363,0
1539624112.605,30.273,43.457,33.691,31.250,46.387,0
1539624112.609,26.855,44.922,34.668,30.273,38.574,0
1539624112.613,31.250,47.852,37.598,29.785,30.273,0
1539624112.617,30.762,46.875,38.086,30.273,44.434,0
1539624112.621,29.297,49.805,35.156,34.668,75.195,0
1539624112.625,30.762,52.734,30.762,27.344,62.988,0
1539624112.629,33.691,48.828,31.250,18.066,39.551,0
1539624112.633,30.762,45.410,32.715,20.508,107.422,0
1539624112.637,30.762,46.875,30.762,27.344,29.785,0
1539624112.641,32.715,44.922,31.738,26.855,-55.664,0
1539624112.645,28.809,41.992,36.133,22.461,36.133,0
1539624112.648,31.250,42.480,38.574,19.043,29.785,0
1539624112.652,25.879,42.480,36.621,18.066,7.812,0
1539624112.656,20.996,41.992,35.156,19.043,31.738,0
1539624112.660,24.902,42.969,36.133,22.949,62.988,0
1539624112.664,29.785,45.410,35.645,30.273,94.727,0
1539624112.668,25.879,44.434,32.227,24.902,74.219,0
1539624112.672,25.879,36.621,35.645,21.973,55.176,0
1539624112.676,31.738,35.156,40.039,30.762,52.246,0
1539624112.680,28.320,40.527,37.109,26.367,82.031,0
1539624112.684,27.832,37.109,40.039,28.809,62.012,0
1539624112.688,25.879,34.668,43.457,32.227,29.297,0
1539624112.691,20.020,32.227,40.527,27.344,16.602,0
1539624112.695,23.438,29.785,39.551,26.367,15.625,0
1539624112.699,20.996,35.645,43.945,25.879,-31.738,0
1539624112.703,16.113,35.156,46.875,20.996,-33.203,0
1539624112.707,21.484,35.156,47.363,21.973,31.738,0
1539624112.711,16.113,37.109,46.387,29.785,36.621,0
1539624112.715,8.789,36.621,42.969,23.926,17.090,0
1539624112.719,11.230,37.109,43.457,19.043,-10.254,0
1539624112.723,29.297,41.504,47.363,25.391,-5.859,0
1539624112.727,18.555,45.898,50.293,11.719,9.766,0
1539624112.730,-7.324,43.945,44.434,-11.230,14.648,0
1539624112.734,-0.977,41.504,42.480,-4.883,60.547,0
1539624112.738,3.418,41.992,45.410,6.348,76.660,0
1539624112.742,-1.953,45.410,47.363,0.488,25.879,0
1539624112.746,-0.977,47.363,51.270,-10.742,54.199,0
1539624112.750,-6.348,42.480,50.293,-20.996,157.715,0
1539624112.754,-10.742,40.527,47.363,-22.949,141.113,0
1539624112.758,-16.113,42.969,48.828,-27.832,49.316,0
1539624112.762,-33.691,41.504,47.852,-46.387,42.969,0
1539624112.766,-33.203,41.504,41.992,-42.480,13.184,0
1539624112.770,-23.438,42.969,45.898,-28.809,-46.875,0
1539624112.773,-28.809,41.992,53.711,-37.109,20.996,0
1539624112.777,-31.738,45.898,43.945,-45.410,59.082,0
1539624112.781,-35.156,44.922,42.969,-41.016,54.199,0
1539624112.785,-42.969,45.898,51.270,-36.133,57.129,0
1539624112.789,-39.551,52.734,48.340,-34.180,55.664,0
1539624112.793,-33.203,45.898,43.457,-36.621,0.977,0
1539624112.797,-29.785,38.086,40.527,-29.785,-13.184,0
1539624112.801,-22.461,40.039,44.922,-19.531,10.254,0
1539624112.805,-23.438,36.621,46.875,-21.484,15.625,0
1539624112.809,-17.090,35.156,40.039,-13.672,41.504,0
1539624112.813,-3.418,38.086,39.551,-4.395,1.465,0
1539624112.816,4.883,38.574,43.457,-4.395,-8.789,0
1539624112.820,18.066,41.504,42.480,6.348,20.996,0
1539624112.824,22.461,41.016,41.992,18.066,41.016,0
1539624112.828,25.391,42.480,34.180,22.949,30.762,0
1539624112.832,34.668,41.016,28.809,27.832,-4.883,0
1539624112.836,33.691,31.250,32.715,25.391,-13.672,0
1539624112.840,34.180,32.715,29.785,23.438,5.371,0
1539624112.844,28.809,38.086,29.785,19.531,20.020,0
1539624112.848,22.949,34.180,32.715,27.344,52.734,0
1539624112.852,26.855,35.156,30.273,35.645,56.641,0
1539624112.855,23.438,41.504,29.297,34.180,70.312,0
1539624112.859,35.156,41.016,32.715,30.762,63.965,0
1539624112.863,41.016,34.180,34.668,26.855,32.715,0
1539624112.867,34.668,27.344,34.668,26.855,36.621,0
1539624112.871,35.645,28.809,34.668,33.691,-1.953,0
1539624112.875,36.621,35.156,31.250,39.062,28.809,0
1539624112.879,43.945,38.086,26.367,36.621,93.750,0
1539624112.883,43.945,37.598,26.367,34.668,-11.719,0
1539624112.887,41.016,35.156,26.855,35.156,-35.156,0
1539624112.891,51.270,34.668,29.297,40.527,71.777,0
1539624112.895,53.711,38.086,31.738,40.527,82.031,0
1539624112.898,52.734,44.434,36.621,43.945,46.875,0
1539624112.902,51.270,42.480,42.480,46.875,0.977,0
1539624112.906,56.641,32.715,39.062,39.551,4.395,0
1539624112.910,56.641,31.738,35.645,39.062,32.227,0
1539624112.914,44.922,28.809,34.668,43.457,52.734,0
1539624112.918,40.039,27.832,34.668,41.016,68.848,0
1539624112.922,47.852,32.715,36.621,41.504,44.434,0
1539624112.926,47.852,38.574,36.621,41.992,10.254,0
1539624112.930,42.969,41.016,30.273,36.621,46.875,0
1539624112.934,46.875,41.016,26.855,39.551,52.734,0
1539624112.938,36.621,34.180,32.227,36.133,17.578,0
1539624112.941,36.133,35.156,34.180,36.621,-9.766,0
1539624112.945,47.363,37.598,36.621,42.969,29.785,0
1539624112.949,45.410,32.227,41.992,37.598,77.148,0
1539624112.953,34.668,29.785,39.551,32.227,29.297,0
1539624112.957,30.273,29.785,36.621,27.832,12.207,0
1539624112.961,27.832,31.250,40.527,27.344,23.926,0
1539624112.965,31.250,31.250,39.551,26.367,-7.812,0
1539624112.969,35.645,32.715,34.668,25.879,-12.207,0
1539624112.973,32.227,38.574,32.715,27.344,-9.277,0
1539624112.977,31.250,40.527,33.691,31.250,19.043,0
1539624112.980,34.180,36.621,32.715,35.156,32.227,0
1539624112.984,35.645,34.668,31.250,36.621,15.137,0
1539624112.988,37.598,32.715,29.785,30.762,54.199,0
1539624112.992,38.086,33.203,31.250,29.785,44.434,2
1539624112.996,42.480,33.203,35.156,33.203,52.246,0
1539624113.000,48.340,33.203,34.180,30.273,26.367,0
1539624113.004,48.340,33.691,33.691,35.156,2.930,0
1539624113.008,43.945,36.621,35.156,41.016,17.090,0
1539624113.012,39.062,41.016,36.621,40.039,50.293,0
1539624113.016,35.156,35.156,38.574,35.645,62.012,0
1539624113.020,32.227,32.227,35.645,30.273,12.695,0
1539624113.023,27.832,34.668,33.691,21.973,31.250,0
1539624113.027,22.461,33.203,32.715,18.066,38.086,0
1539624113.031,26.855,33.691,33.691,22.461,32.227,0
1539624113.035,23.438,36.621,38.086,22.949,19.531,0
1539624113.039,18.555,35.156,40.527,23.926,25.391,0
1539624113.043,30.273,32.715,38.086,20.508,79.102,0
1539624113.047,28.809,33.691,36.133,10.254,57.617,0
1539624113.051,22.949,35.645,41.504,18.555,28.809,0
1539624113.055,27.832,41.016,42.969,28.809,33.203,0
1539624113.059,32.227,41.504,41.504,25.879,14.648,0
1539624113.063,37.598,36.133,42.480,26.855,12.207,0
1539624113.066,38.574,35.156,41.504,34.180,0.977,0
1539624113.070,39.062,35.156,37.109,33.203,29.297,0
1539624113.074,44.922,36.133,34.668,33.203,55.176,0
1539624113.078,39.062,38.574,35.156,40.039,37.598,0
1539624113.082,43.457,39.062,40.039,44.922,46.875,0
1539624113.086,48.828,39.551,43.457,43.945,23.438,0
1539624113.090,37.598,38.574,44.434,36.621,-30.762,0
1539624113.094,32.227,32.227,48.340,37.598,42.480,0
1539624113.098,35.156,33.691,48.340,46.875,22.461,0
1539624113.102,38.574,32.715,44.434,43.457,-23.926,0
1539624113.105,41.504,30.762,41.992,39.551,-26.367,0
1539624113.109,39.062,36.621,41.504,41.504,-14.160,0
1539624113.113,30.762,41.504,40.527,37.598,5.859,0
1539624113.117,32.715,43.457,38.086,34.668,14.648,0
1539624113.121,37.598,43.457,37.598,32.715,-3.906,0
1539624113.125,38.086,42.480,38.574,35.156,20.508,0
1539624113.129,41.016,39.062,38.574,41.992,91.797,0
1539624113.133,39.062,39.062,39.551,33.691,71.289,0
1539624113.137,32.715,37.598,41.016,25.391,51.758,0
1539624113.141,33.691,32.227,41.016,28.320,41.992,0
1539624113.145,38.086,31.250,41.504,32.715,58.594,0
1539624113.148,34.668,36.133,41.992,38.574,84.473,0
1539624113.152,36.133,39.551,41.992,44.922,52.246,0
1539624113.156,39.551,39.062,39.062,45.410,33.691,0
1539624113.160,36.621,39.062,36.133,41.504,21.484,0
1539624113.164,36.133,41.016,38.086,44.922,38.574,0
1539624113.168,39.062,42.969,41.992,47.363,59.082,0
1539624113.172,41.504,42.480,36.133,46.387,40.527,0
1539624113.176,41.016,39.062,33.203,44.922,69.824,0
1539624113.180,33.691,37.109,36.133,43.457,33.691,0
1539624113.184,28.320,32.715,36.621,43.945,-8.789,0
1539624113.188,34.180,32.715,40.527,43.945,22.949,0
1539624113.191,32.715,39.062,44.434,42.480,-16.602,0
1539624113.195,27.832,38.086,43.457,40.527,-26.855,0
1539624113.199,29.297,26.855,40.527,39.551,29.785,0
1539624113.203,29.785,26.367,39.062,36.133,57.129,0
1539624113.207,26.855,30.762,39.062,28.809,52.734,0
1539624113.211,23.438,32.227,42.480,31.738,39.551,0
1539624113.215,23.438,35.645,45.410,41.992,17.578,0
1539624113.219,34.668,36.133,42.480,41.016,13.184,0
1539624113.223,38.574,34.180,42.969,38.086,29.297,0
1539624113.227,37.109,35.156,44.434,43.457,74.219,0
1539624113.230,43.457,37.598,43.457,46.387,69.824,0
1539624113.234,39.062,39.551,44.434,45.410,23.926,0
1539624113.238,34.668,41.992,43.945,47.363,-20.020,0
1539624113.242,38.574,41.504,43.945,45.898,22.461,0
1539624113.246,40.039,37.109,42.969,41.992,43.457,0
1539624113.250,33.691,35.645,38.086,44.434,14.648,0
1539624113.254,33.691,34.668,42.480,42.969,13.672,0
1539624113.258,39.551,34.668,49.316,41.504,-7.324,0
1539624113.262,42.480,35.156,48.340,41.504,37.598,0
1539624113.266,41.504,32.715,45.898,37.598,27.832,0
1539624113.270,40.039,35.156,42.480,44.434,61.523,0
1539624113.273,39.551,40.527,41.016,43.457,70.312,0
1539624113.277,42.969,43.457,44.434,36.621,-11.230,0
1539624113.281,42.969,41.504,44.434,36.133,0.000,0
1539624113.285,33.203,37.109,44.434,30.273,63.477,0
1539624113.289,20.508,35.156,42.969,25.391,81.055,0
1539624113.293,18.555,32.227,39.551,21.973,88.379,0
1539624113.297,21.484,34.180,38.574,24.902,62.988,0
1539624113.301,25.879,32.715,38.086,24.902,46.875,0
1539624113.305,30.273,33.203,39.062,25.391,91.797,0
1539624113.309,26.367,39.551,39.062,26.855,51.758,0
1539624113.313,22.461,38.574,38.086,28.809,19.043,0
1539624113.316,29.297,37.109,41.504,24.414,25.879,0
1539624113.320,30.762,39.551,44.922,21.973,55.664,0
1539624113.324,33.203,39.551,46.387,28.809,51.758,0
1539624113.328,36.133,38.086,41.504,31.250,28.320,0
1539624113.332,33.203,39.062,34.180,32.227,1.465,0
1539624113.336,34.668,39.062,33.203,31.250,32.715,0
1539624113.340,34.180,39.551,35.645,27.832,50.293,0
1539624113.344,32.715,40.527,38.086,31.250,17.090,0
1539624113.348,29.297,38.086,39.062,32.227,35.645,0
1539624113.352,25.391,40.039,36.133,29.297,50.781,0
1539624113.355,25.879,39.062,34.180,25.391,61.523,0
1539624113.359,16.113,31.250,32.227,19.531,18.066,0
1539624113.363,10.254,28.809,31.250,18.555,11.719,0
1539624113.367,11.230,34.668,31.250,21.484,74.707,0
1539624113.371,15.625,34.180,30.762,20.508,44.434,0
1539624113.375,15.625,28.320,32.715,19.043,-2.930,0
1539624113.379,12.695,28.809,35.645,20.508,45.898,0
1539624113.383,14.648,34.668,38.086,19.043,108.398,0
1539624113.387,20.508,35.156,38.574,19.531,93.750,0
1539624113.391,26.855,34.180,41.016,22.461,41.016,0
1539624113.395,25.879,33.203,34.180,19.043,-23.926,0
1539624113.398,24.414,33.691,30.273,22.949,35.156,0
1539624113.402,29.297,31.738,34.180,30.273,74.219,0
1539624113.406,33.203,32.715,31.738,30.762,41.016,0
1539624113.410,39.551,36.133,32.715,30.762,94.727,0
1539624113.414,46.387,36.133,35.645,29.785,85.449,0
1539624113.418,40.039,38.086,35.645,32.227,48.828,0
1539624113.422,27.344,43.457,35.645,31.250,58.105,0
1539624113.426,29.785,50.781,34.668,33.203,72.266,0
1539624113.430,38.574,50.293,35.645,35.645,42.480,0
1539624113.434,26.855,37.598,33.203,27.832,8.789,0
1539624113.438,20.508,28.809,30.273,26.367,32.715,0
1539624113.441,26.367,30.762,32.227,25.391,72.266,0
1539624113.445,24.902,33.691,38.574,24.902,38.574,0
1539624113.449,23.926,33.203,39.551,26.367,24.902,0
1539624113.453,26.367,32.715,34.180,30.273,52.246,0
1539624113.457,25.879,34.668,38.086,32.227,41.504,0
1539624113.461,23.438,35.156,37.598,24.414,34.668,0
1539624113.465,23.926,34.668,35.156,22.461,-8.789,0
1539624113.469,29.297,32.715,36.621,24.902,-28.809,0
1539624113.473,33.203,34.180,35.156,28.320,10.742,0
1539624113.477,31.738,38.086,35.645,28.320,-1.465,0
1539624113.480,38.086,42.480,36.621,27.832,-27.344,0
1539624113.484,45.898,43.945,37.109,29.785,25.391,0
1539624113.488,39.551,39.551,34.668,35.645,61.523,0
1539624113.492,32.715,38.086,34.668,39.551,44.434,0
1539624113.496,36.133,39.062,34.180,35.645,46.875,0
1539624113.500,40.039,36.621,29.785,36.133,75.684,0
1539624113.504,41.504,38.086,29.785,41.016,65.918,0
1539624113.508,40.527,39.062,29.785,43.945,45.410,0
1539624113.512,29.785,33.203,31.738,35.645,42.480,0
1539624113.516,30.273,31.738,34.180,30.273,64.453,0
1539624113.520,35.156,34.668,32.227,33.691,58.105,0
1539624113.523,34.180,38.574,28.809,28.320,59.082,0
1539624113.527,37.598,40.039,27.344,28.320,68.848,0
1539624113.531,35.156,39.551,28.809,30.762,34.180,0
1539624113.535,32.715,41.992,31.250,30.273,1.465,0
1539624113.539,33.203,41.016,32.227,31.738,-15.625,0
1539624113.543,30.273,42.969,29.785,26.855,14.160,0
1539624113.547,33.691,52.246,33.203,22.949,57.617,0
1539624113.551,36.133,49.805,38.574,27.344,27.832,0
1539624113.555,30.762,39.062,40.039,25.391,14.648,0
1539624113.559,25.879,35.156,36.133,23.926,-51.270,0
1539624113.563,28.809,38.086,35.156,24.902,-9.277,0
1539624113.566,32.227,40.527,38.086,25.391,108.398,0
1539624113.570,30.762,41.016,38.086,30.762,71.289,0
1539624113.574,38.574,42.480,39.551,29.785,26.855,0
1539624113.578,41.504,43.945,38.574,27.344,43.457,0
1539624113.582,41.992,42.480,38.086,25.879,40.527,0
1539624113.586,41.992,43.945,40.039,23.926,33.691,0
1539624113.590,41.992,46.387,40.527,25.879,60.547,0
1539624113.594,45.410,44.434,38.574,28.809,76.172,0
1539624113.598,48.828,41.016,34.668,27.344,0.977,0
1539624113.602,41.992,40.039,37.598,24.902,-29.785,0
1539624113.605,41.016,43.945,43.945,28.320,22.461,0
1539624113.609,41.016,41.016,47.852,35.645,60.547,0
1539624113.613,43.945,38.574,45.410,36.621,78.613,0
1539624113.617,44.434,38.086,45.410,35.156,29.297,0
1539624113.621,43.945,39.062,46.387,39.062,-16.113,0
1539624113.625,43.945,38.086,49.805,42.480,11.230,0
1539624113.629,42.969,35.156,52.734,41.992,20.996,0
1539624113.633,40.527,38.086,51.758,40.039,6.836,0
1539624113.637,37.598,43.945,49.805,40.527,39.062,0
1539624113.641,39.062,47.363,47.363,37.109,13.184,0
1539624113.645,38.086,43.457,48.340,32.227,-34.180,0
1539624113.648,37.598,35.645,48.340,34.180,-12.695,0
1539624113.652,34.668,30.762,49.316,34.180,12.695,0
1539624113.656,33.203,34.180,50.293,32.227,-20.020,0
1539624113.660,33.203,38.086,47.852,31.738,-6.348,0
1539624113.664,33.203,38.574,47.363,34.180,18.555,0
1539624113.668,37.109,41.016,50.293,37.109,4.395,0
1539624113.672,40.527,41.016,54.688,34.668,48.340,0
1539624113.676,40.039,37.598,54.199,29.785,44.922,0
1539624113.680,33.203,34.668,54.199,32.227,34.668,0
1539624113.684,31.738,37.109,57.129,36.621,-20.996,0
1539624113.688,31.250,40.039,51.758,38.574,-51.270,0
1539624113.691,33.691,39.062,49.805,38.574,11.230,0
1539624113.695,37.109,36.133,49.316,39.062,74.219,0
1539624113.699,40.039,37.598,45.898,41.504,5.371,0
1539624113.703,43.457,41.504,47.363,38.086,11.230,0
1539624113.707,39.062,40.039,49.316,38.086,54.199,0
1539624113.711,36.133,39.062,45.410,38.574,20.020,0
1539624113.715,36.621,37.598,42.969,35.156,28.809,0
1539624113.719,37.109,35.645,44.922,37.598,74.219,0
1539624113.723,31.738,34.668,46.387,31.250,59.082,0
1539624113.727,31.250,33.203,46.875,32.227,-0.977,0
1539624113.730,32.715,37.109,47.363,39.062,12.695,0
1539624113.734,29.297,41.992,43.457,34.180,-4.395,0
1539624113.738,31.738,43.945,40.039,30.762,6.348,0
1539624113.742,28.320,39.062,41.016,28.320,31.250,0
1539624113.746,28.809,38.086,44.922,32.227,37.598,0
1539624113.750,30.762,40.039,45.410,29.297,88.867,0
1539624113.754,29.297,38.086,44.922,27.832,54.199,0
1539624113.758,35.645,39.062,41.992,34.180,-27.344,0
1539624113.762,35.645,37.109,37.598,36.621,-8.789,0
1539624113.766,36.621,35.156,40.527,35.645,53.711,0
1539624113.770,41.016,37.598,40.527,37.598,33.691,0
1539624113.773,43.457,41.504,37.598,39.062,-24.902,0
1539624113.777,32.227,44.922,41.016,39.551,12.207,0
1539624113.781,32.715,45.410,44.434,36.133,47.363,0
1539624113.785,42.480,41.504,46.875,30.273,21.973,0
1539624113.789,41.016,37.598,47.363,37.109,60.547,0
1539624113.793,40.039,37.598,46.387,40.039,3.418,0
1539624113.797,32.715,34.180,46.387,31.250,-3.418,0
1539624113.801,30.273,34.180,43.945,36.621,71.289,0
1539624113.805,36.621,38.086,42.480,41.504,44.922,0
1539624113.809,35.156,38.574,44.922,38.574,71.289,0
1539624113.813,38.086,37.598,47.852,38.574,35.645,0
1539624113.816,42.480,41.016,44.434,37.598,14.648,0
1539624113.820,38.086,39.551,40.039,41.016,79.102,0
1539624113.824,37.109,32.715,41.016,43.457,41.016,0
1539624113.828,40.039,30.762,43.945,44.434,-5.859,0
1539624113.832,39.551,29.785,42.969,44.434,24.414,0
1539624113.836,38.086,34.180,45.410,43.945,29.297,0
1539624113.840,40.039,35.156,44.434,42.969,63.965,0
1539624113.844,38.086,32.227,38.574,43.945,105.469,0
1539624113.848,36.133,35.645,39.062,43.457,63.477,0
1539624113.852,38.086,40.039,41.016,44.922,29.785,0
1539624113.855,49.316,46.387,40.527,48.828,30.762,0
1539624113.859,44.922,49.316,42.969,47.363,16.602,0
1539624113.863,34.180,42.969,41.016,40.527,73.242,0
1539624113.867,38.086,39.551,36.621,41.016,23.926,0
1539624113.871,34.668,38.574,38.574,41.992,-24.414,0
1539624113.875,35.156,38.086,36.133,37.598,56.641,0
1539624113.879,39.062,41.992,34.180,41.016,76.660,0
1539624113.883,36.621,44.922,41.016,41.504,53.711,0
1539624113.887,33.203,42.480,38.574,33.691,-22.949,0
1539624113.891,29.297,38.086,37.109,30.762,-20.996,0
1539624113.895,30.273,37.598,41.016,33.691,3.906,0
1539624113.898,29.785,41.992,41.016,31.250,-5.371,0
1539624113.902,29.785,42.969,41.992,28.320,13.672,0
1539624113.906,34.180,41.504,41.992,29.785,21.973,0
1539624113.910,33.691,42.480,40.527,29.785,19.043,0
1539624113.914,30.273,41.504,39.551,38.574,5.859,0
1539624113.918,34.180,39.551,36.133,41.504,-21.484,0
1539624113.922,38.086,42.969,34.668,33.203,17.578,0
1539624113.926,35.645,48.828,39.551,33.691,36.133,0
1539624113.930,26.855,45.410,38.086,22.949,64.941,0
1539624113.934,24.902,41.992,38.086,20.020,52.246,0
1539624113.938,27.832,44.922,40.039,24.902,0.488,0
1539624113.941,28.809,45.898,36.133,23.926,8.301,0
1539624113.945,31.250,43.457,37.109,28.809,9.277,0
1539624113.949,30.762,41.992,39.062,29.785,45.898,0
1539624113.953,35.645,37.598,37.109,31.250,20.996,0
1539624113.957,31.250,35.645,39.062,31.250,10.254,0
1539624113.961,29.297,40.039,39.062,29.297,40.039,0
1539624113.965,34.180,40.039,39.062,31.738,0.000,0
1539624113.969,33.203,38.086,39.551,32.715,24.902,0
1539624113.973,32.227,39.551,38.086,29.785,27.832,0
1539624113.977,27.832,41.016,40.039,27.832,-8.789,0
1539624113.980,31.738,41.992,47.852,26.855,47.852,0
1539624113.984,28.320,40.527,48.340,25.391,102.051,0
1539624113.988,18.066,41.016,41.504,28.320,82.031,0
1539624113.992,18.555,36.621,35.645,26.367,30.273,0
1539624113.996,23.438,34.668,35.156,20.020,26.367,0
1539624114.000,27.344,40.527,41.504,23.438,8.301,0
1539624114.004,25.391,39.062,41.504,26.367,20.020,0
1539624114.008,26.855,40.039,36.621,26.855,54.688,0
1539624114.012,29.785,41.992,35.645,27.344,-10.742,0
1539624114.016,34.180,40.039,37.109,28.809,-11.719,0
1539624114.020,35.156,41.504,37.598,23.438,19.531,0
1539624114.023,36.133,42.969,40.527,21.484,55.664,0
1539624114.027,36.133,36.133,39.551,21.973,7.324,0
1539624114.031,35.156,29.785,34.668,15.625,-21.484,0
1539624114.035,31.250,33.691,36.621,16.113,16.113,0
1539624114.039,25.391,34.668,39.551,20.996,23.438,0
1539624114.043,26.855,35.156,39.551,20.020,22.461,0
1539624114.047,27.832,36.133,40.527,16.602,0.488,0
1539624114.051,23.438,35.645,40.039,15.625,-1.465,0
1539624114.055,19.043,36.621,38.574,16.602,25.391,0
1539624114.059,16.113,37.598,38.086,16.113,4.883,0
1539624114.063,19.043,34.668,40.039,18.066,48.828,0
1539624114.066,26.367,30.273,42.969,20.508,66.406,0
1539624114.070,27.344,25.879,44.922,19.531,-13.184,0
1539624114.074,34.668,27.832,44.922,21.973,41.992,0
1539624114.078,40.039,32.227,41.992,22.461,29.297,0
1539624114.082,34.668,33.203,35.645,18.066,17.578,0
1539624114.086,27.832,33.691,35.645,23.438,17.578,0
1539624114.090,20.508,30.273,41.992,22.949,-0.488,0
1539624114.094,23.438,32.227,42.969,21.484,-5.371,0
1539624114.098,27.344,36.133,40.527,24.902,10.742,0
1539624114.102,29.297,34.180,36.133,26.367,43.457,0
1539624114.105,30.762,35.156,33.691,27.344,22.949,0
1539624114.109,29.297,38.086,31.250,24.414,39.551,0
1539624114.113,39.062,37.109,30.273,31.250,28.809,0
1539624114.117,41.504,31.250,31.738,29.297,2.930,0
1539624114.121,34.668,29.297,33.691,21.484,-39.062,0
1539624114.125,35.156,31.738,37.598,25.879,-68.848,0
1539624114.129,31.250,31.738,39.551,26.367,-63.965,0
1539624114.133,21.973,31.250,39.551,21.973,-22.461,0
1539624114.137,20.508,32.227,41.504,13.672,69.336,0
1539624114.141,15.137,33.203,41.016,20.020,73.730,0
1539624114.145,16.602,34.668,35.645,28.809,40.039,0
1539624114.148,29.297,41.504,36.621,26.855,75.684,0
1539624114.152,36.621,43.457,40.039,27.344,83.008,0
1539624114.156,30.273,35.645,39.062,24.414,67.871,0
1539624114.160,25.879,33.203,37.598,26.367,22.949,0
1539624114.164,27.344,35.645,39.062,29.785,59.570,0
1539624114.168,31.738,35.156,40.039,25.879,83.496,0
1539624114.172,29.297,35.156,38.086,22.949,22.949,0
1539624114.176,24.902,38.574,37.598,27.344,43.457,0
1539624114.180,21.973,39.551,38.574,27.832,77.637,0
1539624114.184,25.879,39.551,36.621,25.391,49.316,0
1539624114.188,27.344,38.574,36.621,21.973,78.613,0
1539624114.191,24.902,37.109,36.133,24.902,82.031,0
1539624114.195,33.203,37.598,34.668,25.879,91.309,0
1539624114.199,34.180,35.156,34.668,27.832,28.320,0
1539624114.203,25.879,33.203,39.062,27.344,5.371,0
1539624114.207,22.949,35.645,38.574,26.855,42.969,0
1539624114.211,24.902,39.062,37.598,29.297,48.340,0
1539624114.215,31.250,39.062,41.016,25.879,44.922,0
1539624114.219,27.832,37.598,40.527,28.809,47.852,0
1539624114.223,28.320,40.039,40.527,35.156,55.176,0
1539624114.227,32.227,41.992,40.039,37.598,49.805,0
1539624114.230,28.809,38.086,40.527,34.668,73.730,0
1539624114.234,27.344,33.203,40.527,34.180,52.734,0
1539624114.238,22.461,37.598,37.598,31.738,39.062,0
1539624114.242,25.391,40.039,46.387,31.250,41.016,0
1539624114.246,31.738,37.598,44.922,30.762,50.293,0
1539624114.250,28.320,37.598,33.691,27.832,23.926,0
1539624114.254,26.367,37.109,30.762,31.738,13.672,0
1539624114.258,28.809,38.086,28.809,30.273,25.391,0
1539624114.262,33.203,37.598,32.715,24.902,24.902,0
1539624114.266,33.203,40.527,32.715,29.785,32.715,2
1539624114.270,28.809,44.434,28.320,28.809,21.484,0
1539624114.273,25.391,37.109,25.879,22.949,-10.742,0
1539624114.277,28.809,33.691,22.949,19.531,-20.020,0
1539624114.281,31.250,38.086,25.879,23.438,6.836,0
1539624114.285,27.832,39.062,32.715,29.785,40.527,0
1539624114.289,29.297,39.551,35.156,29.297,40.039,0
1539624114.293,33.691,36.621,38.574,30.762,65.430,0
1539624114.297,26.367,31.738,41.504,33.691,56.152,0
1539624114.301,19.531,35.156,38.574,37.109,33.203,0
1539624114.305,22.461,39.551,40.039,37.109,9.766,0
1539624114.309,22.949,35.645,41.504,28.320,42.969,0
1539624114.313,21.484,28.320,37.109,25.391,111.328,0
1539624114.316,24.902,29.297,38.086,29.785,15.137,0
1539624114.320,21.484,30.762,33.691,25.391,-24.902,0
1539624114.324,20.508,30.762,31.250,20.996,45.410,0
1539624114.328,16.602,30.762,35.156,22.949,73.242,0
1539624114.332,11.230,27.344,34.668,20.508,36.621,0
1539624114.336,15.137,25.391,36.133,18.066,30.762,0
1539624114.340,25.879,25.879,39.062,17.090,54.199,0
1539624114.344,29.785,30.273,40.527,17.090,67.383,0
1539624114.348,27.832,34.180,37.598,25.391,33.203,0
1539624114.352,25.391,32.715,33.203,25.391,1.465,0
1539624114.355,21.973,28.320,31.738,22.461,-17.578,0
1539624114.359,25.879,28.809,28.809,25.879,6.348,0
1539624114.363,31.250,32.715,30.762,25.879,69.336,0
1539624114.367,32.715,36.621,34.180,26.855,78.613,0
1539624114.371,31.738,36.133,36.621,31.738,6.836,0
1539624114.375,30.273,33.691,39.551,33.691,28.320,0
1539624114.379,25.879,34.180,41.992,38.086,77.637,0
1539624114.383,28.320,34.668,45.410,44.434,45.898,0
1539624114.387,32.227,33.203,44.434,41.504,41.016,0
1539624114.391,30.273,33.203,40.527,36.621,66.406,0
1539624114.395,31.738,33.691,45.898,39.551,54.199,0
1539624114.398,33.203,33.203,46.875,39.062,-0.488,0
1539624114.402,22.461,32.227,45.410,33.203,7.812,0
1539624114.406,22.949,33.691,45.898,28.320,99.121,0
1539624114.410,25.879,36.133,43.457,24.902,119.141,0
1539624114.414,20.020,36.133,43.457,23.926,33.691,0
1539624114.418,17.578,33.203,47.363,25.879,45.898,0
1539624114.422,20.508,37.598,46.387,29.297,92.773,0
1539624114.426,20.508,41.504,41.504,35.156,43.945,0
1539624114.430,20.996,38.574,41.016,31.738,60.547,0
1539624114.434,24.902,37.109,40.527,29.785,108.398,0
1539624114.438,24.902,33.203,41.016,34.180,87.402,0
1539624114.441,26.367,32.715,41.992,29.785,58.105,0
1539624114.445,29.297,35.156,40.527,24.902,54.199,0
1539624114.449,36.621,34.668,38.574,23.926,30.762,0
1539624114.453,38.086,37.109,37.598,22.949,-17.578,0
1539624114.457,32.227,38.086,38.574,26.855,-18.555,0
1539624114.461,28.809,32.227,39.551,25.879,18.555,0
1539624114.465,27.344,31.738,43.457,26.855,92.285,0
1539624114.469,21.973,34.180,46.875,28.809,60.059,0
1539624114.473,19.043,33.203,40.527,20.020,11.719,0
1539624114.477,18.066,37.109,33.203,16.113,20.020,0
1539624114.480,19.043,37.598,32.227,18.555,93.262,0
1539624114.484,20.508,35.645,33.691,19.043,40.527,0
1539624114.488,23.926,37.109,35.156,20.020,-60.059,0
1539624114.492,30.273,37.109,37.598,26.855,-20.020,0
1539624114.496,28.809,35.156,39.062,27.832,10.254,0
1539624114.500,29.297,31.738,40.527,25.391,17.578,0
1539624114.504,38.086,33.691,41.992,29.297,32.715,0
1539624114.508,48.340,36.133,39.062,36.133,17.578,0
1539624114.512,44.922,36.133,38.086,37.598,-2.441,0
1539624114.516,39.062,38.086,36.621,37.598,-3.906,0
1539624114.520,41.504,41.992,41.016,36.621,61.523,0
1539624114.523,43.945,45.898,46.387,37.109,88.867,0
1539624114.527,40.527,43.945,42.480,37.598,62.012,0
1539624114.531,37.598,37.109,39.551,33.691,91.309,0
1539624114.535,40.039,34.180,39.062,33.691,82.520,0
1539624114.539,47.852,36.621,40.039,32.715,17.578,0
1539624114.543,53.223,37.598,41.992,25.879,-43.945,0
1539624114.547,36.133,38.086,41.016,25.879,9.766,0
1539624114.551,30.273,39.551,40.039,28.809,32.715,0
1539624114.555,35.645,41.992,41.992,26.855,-19.043,0
1539624114.559,29.297,44.922,43.945,22.461,-9.277,0
1539624114.563,22.461,40.527,45.410,18.066,39.062,0
1539624114.566,23.926,33.203,41.016,16.602,75.684,0
1539624114.570,23.926,35.156,37.598,17.578,47.363,0
1539624114.574,20.508,37.109,38.086,18.555,21.484,0
1539624114.578,20.020,33.203,37.109,19.043,-23.926,0
1539624114.582,21.484,32.227,36.133,18.066,-46.875,0
1539624114.586,27.344,32.715,36.133,16.113,11.230,0
1539624114.590,29.785,38.574,37.598,14.160,37.598,0
1539624114.594,24.902,41.504,39.551,12.695,49.805,0
1539624114.598,25.391,40.039,42.480,16.602,31.738,0
1539624114.602,29.297,39.551,43.945,26.855,43.945,0
1539624114.605,28.809,38.086,48.828,28.320,35.156,0
1539624114.609,23.438,38.574,49.316,23.438,18.555,0
1539624114.613,30.273,36.621,45.410,20.996,34.668,0
1539624114.617,35.156,35.156,43.457,20.020,59.570,0
1539624114.621,37.598,38.574,47.852,26.855,70.312,0
1539624114.625,42.480,40.527,50.293,31.250,57.617,0
1539624114.629,43.457,40.039,47.363,32.227,82.031,0
1539624114.633,41.504,38.574,45.898,29.785,38.574,0
1539624114.637,25.879,31.250,34.668,23.926,14.648,0
1539624114.641,22.461,30.762,35.645,27.832,51.270,0
1539624114.645,31.738,35.645,48.340,27.344,23.438,0
1539624114.648,26.367,36.133,47.852,25.879,0.488,0
1539624114.652,16.113,35.645,42.969,25.391,15.137,0
1539624114.656,16.602,33.203,42.969,28.320,19.043,0
1539624114.660,25.879,26.855,42.480,29.785,-0.977,0
1539624114.664,28.320,27.832,39.062,28.809,16.113,0
1539624114.668,28.809,32.715,41.504,33.691,11.230,0
1539624114.672,35.156,34.668,48.340,39.062,37.109,0
1539624114.676,33.691,35.156,49.316,41.992,45.898,0
1539624114.680,28.809,33.203,42.969,39.062,11.230,0
1539624114.684,29.785,34.668,44.434,35.156,32.715,0
1539624114.688,29.297,38.086,48.340,34.668,43.457,0
1539624114.691,30.762,33.691,48.340,28.809,45.410,0
1539624114.695,33.203,30.273,42.969,25.879,1.953,0
1539624114.699,30.762,33.691,37.598,33.691,36.621,0
1539624114.703,31.250,35.156,37.598,36.133,104.980,0
1539624114.707,32.227,32.227,37.109,36.133,45.410,0
1539624114.711,30.762,32.227,39.551,36.621,-35.645,0
1539624114.715,26.367,30.762,42.480,29.785,18.066,0
1539624114.719,21.973,31.250,42.969,32.715,74.219,0
1539624114.723,20.508,32.227,42.969,37.598,27.832,0
1539624114.727,22.949,31.250,44.434,34.180,15.137,0
1539624114.730,30.273,34.668,44.434,30.762,0.977,0
1539624114.734,32.715,35.156,39.062,31.738,4.395,0
1539624114.738,24.902,35.645,36.621,31.250,29.785,0
1539624114.742,22.949,34.180,38.574,28.320,-16.602,0
1539624114.746,24.902,33.203,38.574,30.273,-33.203,0
1539624114.750,25.879,34.668,38.086,32.715,18.066,0
1539624114.754,28.320,36.621,34.668,32.715,83.496,0
1539624114.758,26.855,36.621,30.273,30.273,59.570,0
1539624114.762,24.414,32.715,31.250,28.320,41.504,0
1539624114.766,27.344,34.668,37.598,35.156,38.574,0
1539624114.770,32.227,39.062,41.016,41.504,-4.395,0
1539624114.773,31.738,37.109,32.715,37.109,-22.949,0
1539624114.777,24.902,32.715,32.715,31.250,10.742,0
1539624114.781,31.250,36.133,41.016,36.621,66.895,0
1539624114.785,38.574,37.109,37.598,39.062,48.340,0
1539624114.789,38.086,34.180,34.180,41.992,22.949,0
1539624114.793,39.062,39.551,38.574,41.504,61.523,0
1539624114.797,40.527,40.527,37.109,36.133,47.852,0
1539624114.801,34.668,35.156,33.203,32.227,39.062,0
1539624114.805,27.344,37.109,34.180,36.133,56.641,0
1539624114.809,26.855,38.574,38.574,35.156,53.223,0
1539624114.813,25.391,38.086,37.109,29.297,103.027,0
1539624114.816,25.879,35.645,35.156,36.133,100.586,0
1539624114.820,34.180,30.762,37.598,38.086,35.156,0
1539624114.824,36.621,27.832,38.574,41.992,-12.695,0
1539624114.828,37.109,30.762,44.434,41.016,-60.547,0
1539624114.832,33.691,33.691,48.340,37.598,-58.594,0
1539624114.836,34.668,37.109,43.457,39.551,-7.812,0
1539624114.840,41.016,37.109,43.457,41.504,-6.348,0
1539624114.844,43.945,41.016,44.922,50.293,-34.180,0
1539624114.848,43.945,47.363,40.527,46.387,8.301,0
1539624114.852,44.434,44.922,40.039,39.551,27.344,0
1539624114.855,41.504,37.598,41.016,44.922,43.945,0
1539624114.859,43.457,33.691,39.551,45.410,-0.488,0
1539624114.863,47.363,35.645,38.574,47.363,-20.996,0
1539624114.867,38.086,37.109,40.527,46.875,12.207,0
1539624114.871,41.504,40.527,42.480,43.457,43.945,0
1539624114.875,47.852,41.016,46.387,43.457,62.500,0
1539624114.879,35.156,37.598,45.410,39.551,70.312,0
1539624114.883,32.715,35.645,42.969,42.480,37.598,0
1539624114.887,37.109,38.574,41.016,39.062,-9.766,0
1539624114.891,40.527,44.434,40.039,32.715,-6.836,0
1539624114.895,44.434,43.457,38.574,31.738,48.828,0
1539624114.898,39.062,37.109,36.621,30.762,44.434,0
1539624114.902,33.691,39.062,38.086,31.738,51.758,0
1539624114.906,34.180,43.945,40.039,28.809,95.215,0
1539624114.910,35.156,42.969,39.062,28.320,14.648,0
1539624114.914,37.109,42.969,38.574,29.297,-11.719,0
1539624114.918,38.086,43.945,38.086,27.344,71.289,0
1539624114.922,31.250,41.504,37.598,23.438,50.781,0
1539624114.926,29.297,41.992,39.551,23.438,39.062,0
1539624114.930,37.109,44.922,42.480,25.391,51.758,0
1539624114.934,32.715,38.574,42.969,17.578,0.000,0
1539624114.938,31.738,37.598,42.969,13.184,26.855,0
1539624114.941,37.598,43.457,49.316,24.414,24.414,0
1539624114.945,41.016,44.922,45.410,23.438,-19.043,0
1539624114.949,39.062,43.945,37.109,22.461,28.320,0
1539624114.953,33.203,43.457,37.598,20.020,74.219,0
1539624114.957,39.551,43.457,42.480,21.973,42.480,0
1539624114.961,42.480,44.922,41.016,24.902,-8.789,0
1539624114.965,36.133,45.898,41.504,9.766,22.461,0
1539624114.969,31.738,41.992,40.039,13.672,26.367,0
1539624114.973,32.715,39.551,38.086,23.926,29.785,0
1539624114.977,31.250,35.156,39.551,20.508,14.648,0
1539624114.980,26.367,33.691,38.086,19.043,40.039,0
1539624114.984,23.438,36.133,41.016,20.020,82.520,0
1539624114.988,24.902,36.133,41.504,21.484,53.711,0
1539624114.992,28.320,38.574,41.504,22.461,23.438,0
1539624114.996,28.809,39.551,40.039,21.973,50.781,0
1539624115.000,25.879,37.109,36.133,24.414,66.895,0
1539624115.004,26.855,35.156,36.133,22.949,49.316,0
1539624115.008,31.738,34.668,37.109,20.996,44.434,0
1539624115.012,37.109,34.180,37.598,24.414,-38.086,0
1539624115.016,39.062,31.738,39.062,31.250,-39.551,0
1539624115.020,31.738,33.691,38.574,30.273,-19.043,0
1539624115.023,28.809,36.133,38.086,22.461,-13.184,0
1539624115.027,38.086,35.156,38.574,27.344,8.301,0
1539624115.031,35.156,39.551,37.598,30.762,21.973,0
1539624115.035,24.414,45.898,41.016,35.645,48.828,0
1539624115.039,29.297,41.992,46.387,37.598,73.242,0
1539624115.043,39.551,38.574,48.340,37.598,82.520,0
1539624115.047,43.945,41.016,43.457,36.621,55.176,0
1539624115.051,36.621,39.551,36.133,34.180,53.711,0
1539624115.055,30.762,37.598,33.691,36.621,22.461,0
1539624115.059,29.785,36.621,36.133,32.715,19.531,0
1539624115.063,35.645,38.574,35.645,31.250,61.523,0
1539624115.066,37.598,42.969,38.086,32.227,103.027,0
1539624115.070,33.203,41.504,41.504,37.109,64.941,0
1539624115.074,36.133,41.504,40.039,41.992,43.457,0
1539624115.078,38.086,44.434,39.551,39.062,48.340,0
1539624115.082,41.992,39.551,43.945,37.598,68.359,0
1539624115.086,41.016,37.109,46.387,40.039,39.062,0
1539624115.090,38.086,36.133,45.410,35.156,11.719,0
1539624115.094,33.691,34.668,42.969,34.180,25.391,0
1539624115.098,27.344,35.156,43.457,38.086,17.578,0
1539624115.102,21.973,37.598,41.992,31.738,20.508,0
1539624115.105,20.508,34.668,37.109,29.297,72.266,0
1539624115.109,28.320,31.738,34.668,32.227,86.426,0
1539624115.113,29.297,38.574,32.715,33.691,35.156,0
1539624115.117,22.949,39.062,35.156,32.715,61.035,0
1539624115.121,28.809,32.715,37.109,36.621,19.043,0
1539624115.125,33.691,30.762,39.062,37.598,-8.789,0
1539624115.129,27.344,30.762,40.039,26.855,31.250,0
1539624115.133,25.879,36.133,36.621,26.855,18.555,0
1539624115.137,27.832,35.156,37.109,30.762,-6.348,0
1539624115.141,24.902,31.738,40.039,28.809,-31.250,0
1539624115.145,28.809,38.574,42.480,30.762,-0.977,0
1539624115.148,38.574,40.039,42.480,31.250,14.160,0
1539624115.152,39.551,38.086,44.922,31.738,9.766,0
1539624115.156,38.574,43.945,49.316,34.668,16.602,0
1539624115.160,38.086,43.457,43.945,38.086,9.766,0
1539624115.164,29.297,36.621,41.016,32.715,17.578,0
1539624115.168,26.855,32.715,41.016,30.762,25.391,0
1539624115.172,33.203,32.227,42.969,41.016,28.320,0
1539624115.176,33.691,33.691,48.340,46.387,53.223,0
1539624115.180,30.762,33.691,49.316,45.410,50.781,0
1539624115.184,29.297,36.133,41.504,43.457,31.250,0
1539624115.188,27.344,37.598,36.133,39.551,47.852,0
1539624115.191,25.391,38.086,37.598,37.109,73.730,0
1539624115.195,28.320,44.434,42.969,33.691,30.273,0
1539624115.199,33.691,48.828,44.922,34.180,44.434,0
1539624115.203,31.250,42.969,39.551,36.621,85.449,0
1539624115.207,26.367,36.621,35.156,29.297,34.180,0
1539624115.211,24.414,35.645,32.227,22.949,20.020,0
1539624115.215,24.902,37.598,32.715,21.484,8.301,0
1539624115.219,32.227,40.039,36.133,27.832,18.066,0
