timestamps,TP9,AF7,AF8,TP10,Right AUX,Marker0
1539623877.797,35.645,32.227,34.180,32.227,67.871,0
1539623877.801,37.598,36.621,38.086,29.785,11.230,0
1539623877.805,36.133,39.551,41.016,36.621,75.195,0
1539623877.809,36.133,34.668,36.133,38.086,68.359,0
1539623877.813,31.738,30.762,34.180,29.297,28.809,0
1539623877.816,32.227,31.250,37.109,30.762,75.195,0
1539623877.820,33.691,37.109,41.504,41.016,108.887,0
1539623877.824,34.180,40.039,43.457,47.852,83.984,0
1539623877.828,36.133,36.621,41.992,49.316,13.184,0
1539623877.832,33.691,35.156,41.992,46.875,17.090,0
1539623877.836,41.016,38.086,41.992,41.992,19.043,0
1539623877.840,33.691,34.668,40.527,30.762,10.742,0
1539623877.844,26.855,34.180,40.527,27.832,4.395,0
1539623877.848,42.969,36.621,35.645,39.062,-23.926,0
1539623877.852,37.109,38.086,33.691,39.551,-18.066,0
1539623877.855,24.902,37.598,32.715,35.156,15.625,0
1539623877.859,33.691,37.598,23.438,39.062,-5.859,0
1539623877.863,39.551,40.527,27.832,42.480,1.953,0
1539623877.867,39.062,37.598,36.133,41.016,105.469,0
1539623877.871,37.109,37.109,34.180,37.109,84.473,0
1539623877.875,32.227,39.551,34.668,36.621,34.180,0
1539623877.879,30.273,40.039,36.621,34.180,59.082,0
1539623877.883,31.250,37.109,37.598,27.344,27.832,0
1539623877.887,28.320,33.691,37.598,30.273,-25.879,0
1539623877.891,25.879,33.691,39.551,34.180,-5.859,0
1539623877.895,31.250,35.645,40.039,28.809,-13.184,0
1539623877.898,27.832,37.109,41.016,19.531,-22.949,0
1539623877.902,22.461,38.086,37.598,20.508,59.570,0
1539623877.906,27.344,38.086,32.715,26.855,54.688,0
1539623877.910,29.297,39.062,36.133,28.320,-1.465,0
1539623877.914,26.855,35.645,38.086,29.297,43.457,0
1539623877.918,24.902,34.180,36.621,26.367,60.547,0
1539623877.922,26.367,38.574,32.227,22.461,52.246,0
1539623877.926,27.344,40.039,35.156,21.973,9.277,0
1539623877.930,22.461,40.527,41.016,14.160,-44.434,0
1539623877.934,15.137,38.086,28.320,12.207,-11.719,1
1539623877.938,21.484,36.133,21.484,23.438,-22.461,0
1539623877.941,25.391,38.574,33.203,26.367,-14.648,0
1539623877.945,24.902,38.574,37.109,20.020,51.758,0
1539623877.949,27.344,39.062,38.574,24.902,24.414,0
1539623877.953,27.344,36.133,34.668,26.855,14.160,0
1539623877.957,25.879,33.203,34.180,20.508,6.348,0
1539623877.961,23.926,35.645,40.039,16.602,-10.254,0
1539623877.965,24.902,39.062,41.504,18.066,50.781,0
1539623877.969,33.691,39.062,41.016,21.973,20.996,0
1539623877.973,33.203,37.109,35.156,19.531,-22.949,0
1539623877.977,27.344,37.109,32.715,16.113,45.898,0
1539623877.980,29.785,37.109,40.527,24.414,51.270,0
1539623877.984,29.297,37.598,40.039,27.832,42.480,0
1539623877.988,27.832,39.551,37.109,29.297,64.941,0
1539623877.992,30.762,37.598,34.668,32.715,36.621,0
1539623877.996,30.273,36.133,34.180,33.691,29.785,0
1539623878.000,33.691,38.086,36.133,35.645,40.527,0
1539623878.004,36.133,36.621,36.133,33.203,48.340,0
1539623878.008,33.203,33.691,32.715,24.902,-10.254,0
1539623878.012,30.273,34.668,33.203,24.902,0.488,0
1539623878.016,26.855,36.133,37.598,25.391,32.227,0
1539623878.020,24.414,32.715,37.598,21.973,22.461,0
1539623878.023,31.250,33.691,37.109,30.762,22.461,0
1539623878.027,36.133,36.133,41.016,34.668,67.383,0
1539623878.031,31.738,38.574,41.992,37.109,106.445,0
1539623878.035,32.715,39.551,41.016,36.621,88.379,0
1539623878.039,33.203,41.016,41.504,34.668,52.734,0
1539623878.043,37.598,40.039,41.016,39.551,99.609,0
1539623878.047,31.738,35.156,39.551,42.480,88.379,0
1539623878.051,20.508,33.203,40.039,33.203,37.109,0
1539623878.055,20.508,30.762,39.062,26.367,82.520,0
1539623878.059,26.855,31.250,44.922,29.785,110.840,0
1539623878.063,23.438,32.227,34.180,23.438,93.750,0
1539623878.066,20.508,35.156,24.414,18.066,13.672,0
1539623878.070,22.461,37.109,40.527,18.555,41.016,0
1539623878.074,26.367,37.109,49.316,20.508,54.199,0
1539623878.078,31.250,39.551,42.969,27.344,-27.344,0
1539623878.082,28.809,40.039,34.180,23.438,16.113,0
1539623878.086,26.367,38.574,30.762,18.066,65.918,0
1539623878.090,23.926,36.621,26.367,21.973,27.344,0
1539623878.094,31.250,34.180,27.344,22.461,-24.414,0
1539623878.098,33.203,34.668,36.133,28.809,-45.410,0
1539623878.102,22.949,35.645,38.086,32.227,-57.617,0
1539623878.105,26.855,38.574,37.598,32.227,27.344,0
1539623878.109,29.785,38.086,38.574,27.832,31.250,0
1539623878.113,27.832,36.621,38.086,26.367,-20.020,0
1539623878.117,38.574,39.551,38.574,37.109,63.477,0
1539623878.121,37.109,42.969,38.574,33.203,93.750,0
1539623878.125,22.949,40.039,36.621,24.902,93.262,0
1539623878.129,19.531,37.109,33.691,23.438,90.332,0
1539623878.133,17.090,37.109,34.668,24.414,50.781,0
1539623878.137,22.461,38.574,33.691,27.344,66.406,0
1539623878.141,22.461,38.086,33.203,27.344,96.191,0
1539623878.145,17.090,40.527,35.645,25.391,52.734,0
1539623878.148,18.555,42.969,35.645,19.043,25.879,0
1539623878.152,12.695,38.574,36.621,7.324,51.758,0
1539623878.156,6.348,38.086,36.621,5.859,-17.090,0
1539623878.160,15.137,39.551,30.762,8.301,-30.273,0
1539623878.164,21.973,40.527,30.762,6.348,70.801,0
1539623878.168,20.996,43.457,33.691,8.789,99.121,0
1539623878.172,22.949,46.875,30.273,12.695,47.363,0
1539623878.176,31.250,47.852,33.691,15.137,-19.531,0
1539623878.180,33.691,46.875,33.203,20.020,25.391,0
1539623878.184,30.762,42.969,26.855,23.926,77.637,0
1539623878.188,33.203,36.621,26.855,15.625,83.984,0
1539623878.191,27.832,38.086,27.344,12.207,32.227,0
1539623878.195,23.438,38.574,31.738,19.043,22.949,0
1539623878.199,26.367,38.086,37.109,18.066,43.457,0
1539623878.203,27.832,40.039,34.180,21.973,42.969,0
1539623878.207,31.738,39.062,32.227,25.391,60.547,0
1539623878.211,34.180,38.574,35.156,28.809,55.176,0
1539623878.215,29.785,40.527,40.039,29.785,24.902,0
1539623878.219,27.832,40.527,37.109,27.832,54.688,0
1539623878.223,26.367,37.598,32.715,27.344,103.516,0
1539623878.227,25.879,33.691,33.203,21.484,20.020,0
1539623878.230,26.367,33.691,32.227,18.555,-19.531,0
1539623878.234,23.438,35.645,29.785,20.508,-4.883,0
1539623878.238,20.996,39.551,26.855,18.066,13.184,0
1539623878.242,22.461,41.504,27.832,13.672,45.898,0
1539623878.246,22.461,40.039,28.320,17.578,46.875,0
1539623878.250,17.578,39.062,26.367,21.484,25.879,0
1539623878.254,18.555,41.504,32.715,20.996,13.184,0
1539623878.258,24.902,39.551,36.621,15.137,66.406,0
1539623878.262,21.973,34.668,28.809,12.207,69.824,0
1539623878.266,26.855,36.133,27.344,17.578,34.180,0
1539623878.270,26.855,35.645,32.227,14.648,50.781,0
1539623878.273,18.555,32.715,31.738,14.160,52.734,0
1539623878.277,16.602,37.109,30.273,27.344,33.691,0
1539623878.281,22.949,39.062,33.203,30.273,19.531,0
1539623878.285,29.297,33.691,33.691,27.344,32.227,0
1539623878.289,30.762,33.691,33.203,32.715,50.293,0
1539623878.293,22.461,34.668,40.527,28.809,31.250,0
1539623878.297,21.484,38.086,47.363,26.855,31.738,0
1539623878.301,24.414,44.434,42.480,28.320,39.062,0
1539623878.305,20.996,42.480,33.203,23.926,73.730,0
1539623878.309,21.484,40.527,35.156,23.438,54.688,0
1539623878.313,23.438,43.945,35.645,29.785,5.859,0
1539623878.316,24.414,41.016,31.738,31.738,57.617,0
1539623878.320,19.531,36.621,36.133,21.973,92.285,0
1539623878.324,20.508,38.086,35.645,21.484,103.516,0
1539623878.328,21.973,35.645,32.715,18.066,76.660,0
1539623878.332,23.438,36.621,35.645,19.531,40.039,0
1539623878.336,25.391,39.062,33.691,21.484,72.754,0
1539623878.340,24.414,37.109,30.762,13.672,112.305,0
1539623878.344,33.691,38.086,32.715,16.113,58.594,0
1539623878.348,28.809,38.086,34.668,17.090,15.625,0
1539623878.352,18.066,36.133,30.762,13.672,31.250,0
1539623878.355,26.855,38.086,26.855,17.090,-42.480,0
1539623878.359,29.785,33.691,31.250,15.137,-71.289,0
1539623878.363,30.762,32.227,32.715,17.090,-41.016,0
1539623878.367,34.180,35.156,30.762,25.391,-14.648,0
1539623878.371,36.621,33.203,32.227,29.297,56.152,0
1539623878.375,36.133,34.180,34.668,34.180,31.250,0
1539623878.379,33.203,33.203,35.156,30.762,17.578,0
1539623878.383,40.039,34.180,35.645,27.832,46.387,0
1539623878.387,39.062,41.504,33.691,28.809,10.254,0
1539623878.391,35.156,38.574,35.645,24.902,69.336,0
1539623878.395,35.645,32.227,37.109,23.438,62.500,0
1539623878.398,29.785,36.133,34.668,26.855,-10.742,0
1539623878.402,28.320,39.062,37.598,25.391,11.230,0
1539623878.406,29.297,39.062,38.574,26.855,21.973,0
1539623878.410,28.809,36.621,34.180,28.809,24.414,0
1539623878.414,30.762,36.621,33.203,29.297,92.285,0
1539623878.418,39.551,36.621,34.180,34.180,74.707,0
1539623878.422,38.086,31.738,35.645,38.574,2.441,0
1539623878.426,31.250,33.203,33.691,30.762,-0.488,0
1539623878.430,35.156,33.691,32.715,26.367,21.973,0
1539623878.434,36.621,30.273,37.109,24.414,9.766,0
1539623878.438,32.227,31.250,36.133,20.508,-4.883,0
1539623878.441,34.180,30.273,32.227,27.832,31.738,0
1539623878.445,34.180,32.227,32.715,36.621,45.410,0
1539623878.449,31.250,33.691,36.621,28.809,51.758,0
1539623878.453,35.156,31.738,35.645,28.809,20.020,0
1539623878.457,34.668,27.832,30.273,35.156,-14.648,0
1539623878.461,36.133,27.832,35.156,36.621,-4.883,0
1539623878.465,41.504,34.668,36.621,40.039,14.160,0
1539623878.469,38.086,34.668,35.156,30.273,49.805,0
1539623878.473,38.086,31.738,39.062,32.227,-19.531,0
1539623878.477,40.039,31.250,38.574,37.109,-36.133,0
1539623878.480,41.016,32.715,41.016,34.668,16.602,0
1539623878.484,38.086,34.180,42.480,37.598,26.855,0
1539623878.488,37.109,33.203,43.945,39.062,20.996,0
1539623878.492,43.945,34.668,49.316,36.621,20.508,0
1539623878.496,44.434,38.574,45.898,36.133,19.531,0
1539623878.500,39.062,35.645,41.504,33.691,37.598,0
1539623878.504,44.922,34.668,42.480,35.645,53.711,0
1539623878.508,48.340,35.156,43.457,40.527,47.363,0
1539623878.512,41.016,31.738,42.480,39.062,37.598,0
1539623878.516,39.062,30.273,40.527,37.598,72.266,0
1539623878.520,38.086,31.738,41.504,41.504,110.352,0
1539623878.523,41.992,35.156,45.898,44.434,96.680,0
1539623878.527,38.574,33.203,43.457,39.551,78.613,0
1539623878.531,31.738,27.344,38.086,33.203,54.199,0
1539623878.535,31.250,28.809,43.457,34.180,78.613,0
1539623878.539,34.180,34.180,41.016,32.715,50.293,0
1539623878.543,39.551,34.668,39.551,28.809,-6.836,0
1539623878.547,34.668,33.691,41.992,34.180,23.438,0
1539623878.551,34.180,38.086,38.574,29.785,15.137,0
1539623878.555,38.574,40.039,38.086,20.508,37.598,0
1539623878.559,30.762,38.086,40.527,22.949,67.871,0
1539623878.563,28.809,39.551,32.715,27.832,37.109,0
1539623878.566,27.832,38.574,23.438,22.949,20.508,0
1539623878.570,21.973,35.645,33.691,16.602,8.789,0
1539623878.574,21.484,32.715,35.156,7.812,71.289,0
1539623878.578,27.832,34.668,29.785,8.301,99.609,0
1539623878.582,31.738,36.621,33.203,15.625,24.414,0
1539623878.586,12.207,32.715,38.086,12.695,24.902,0
1539623878.590,3.418,32.227,37.598,13.184,61.035,0
1539623878.594,8.789,32.227,36.133,10.254,22.949,0
1539623878.598,16.602,33.691,38.086,6.836,7.812,0
1539623878.602,19.043,35.156,39.551,15.625,35.156,0
1539623878.605,20.020,32.715,40.527,22.949,22.461,0
1539623878.609,24.414,36.621,40.527,18.555,20.996,0
1539623878.613,24.902,41.016,41.504,20.996,39.062,0
1539623878.617,26.855,38.086,40.527,19.531,2.441,0
1539623878.621,21.484,34.668,35.156,17.090,5.371,0
1539623878.625,21.484,35.645,37.598,27.344,28.809,0
1539623878.629,27.832,40.039,43.457,31.738,45.410,0
1539623878.633,33.691,42.480,47.852,27.832,56.641,0
1539623878.637,28.809,40.039,48.828,25.879,69.336,0
1539623878.641,27.344,36.621,50.293,30.762,-7.812,0
1539623878.645,28.809,36.621,47.852,32.715,-24.414,0
1539623878.648,17.578,37.598,34.180,26.367,58.105,0
1539623878.652,16.113,37.598,29.297,25.879,34.668,0
1539623878.656,27.832,41.016,36.621,27.832,-23.926,0
1539623878.660,32.715,42.480,39.551,32.715,-23.926,0
1539623878.664,32.227,44.434,41.016,32.227,2.930,0
1539623878.668,29.297,45.410,40.527,28.320,15.137,0
1539623878.672,32.715,42.969,32.715,31.250,50.781,0
1539623878.676,38.086,40.527,35.645,28.320,43.945,0
1539623878.680,25.879,36.621,42.480,19.531,6.836,0
1539623878.684,19.531,37.109,41.504,19.043,60.059,0
1539623878.688,28.320,41.992,40.527,21.484,82.520,0
1539623878.691,34.180,43.945,44.434,19.043,26.367,0
1539623878.695,24.414,40.527,44.922,16.113,20.020,0
1539623878.699,26.367,41.992,40.039,19.531,20.996,0
1539623878.703,36.133,45.898,40.527,22.461,37.109,0
1539623878.707,34.180,44.922,40.039,22.461,44.922,0
1539623878.711,28.320,40.527,37.109,22.461,-15.137,0
1539623878.715,24.414,33.691,36.133,20.508,24.902,0
1539623878.719,29.297,34.180,41.016,21.973,82.520,0
1539623878.723,34.668,39.551,41.016,23.926,41.504,0
1539623878.727,24.902,37.109,38.574,28.320,80.566,0
1539623878.730,22.949,38.574,38.086,31.250,55.176,0
1539623878.734,29.297,39.551,37.598,26.855,10.742,0
1539623878.738,32.715,38.086,39.062,27.344,-2.930,0
1539623878.742,36.621,36.621,43.945,28.320,-32.227,0
1539623878.746,30.762,35.645,45.898,27.832,-2.441,0
1539623878.750,31.250,36.621,39.551,28.320,13.672,0
1539623878.754,34.668,35.156,33.691,24.902,36.621,0
1539623878.758,28.320,37.109,32.227,25.391,68.848,0
1539623878.762,36.133,39.062,40.527,32.227,64.453,0
1539623878.766,36.621,36.621,39.551,35.156,37.109,0
1539623878.770,31.738,34.668,30.273,33.691,53.711,0
1539623878.773,29.785,35.156,40.039,29.785,48.340,0
1539623878.777,38.574,40.527,43.457,27.832,8.789,0
1539623878.781,45.898,40.527,41.016,28.320,-3.418,0
1539623878.785,31.250,33.691,42.969,23.926,10.254,0
1539623878.789,38.574,32.227,38.574,24.902,-0.488,0
1539623878.793,50.293,34.180,38.574,27.832,-11.230,0
1539623878.797,36.621,40.039,41.504,23.926,-0.977,0
1539623878.801,26.855,40.527,40.039,24.414,-28.809,0
1539623878.805,26.367,35.645,36.621,30.762,-45.898,0
1539623878.809,30.273,36.133,36.133,30.273,-21.484,0
1539623878.813,30.762,39.062,42.969,17.578,-14.648,0
1539623878.816,25.391,35.645,44.434,13.672,25.391,0
1539623878.820,19.043,33.691,41.992,21.484,30.762,0
1539623878.824,19.043,37.109,41.992,23.438,12.695,0
1539623878.828,24.902,40.039,42.480,19.531,28.809,0
1539623878.832,26.367,41.992,41.504,19.531,38.086,0
1539623878.836,22.461,40.527,45.898,20.508,25.879,0
1539623878.840,16.113,40.527,45.898,22.461,9.766,0
1539623878.844,18.066,40.039,39.062,25.879,60.059,0
1539623878.848,20.020,34.668,38.574,28.809,64.941,0
1539623878.852,26.855,35.645,37.109,29.297,39.062,0
1539623878.855,33.691,40.527,35.156,24.902,20.508,0
1539623878.859,22.949,37.109,34.180,25.391,-5.859,0
1539623878.863,22.461,34.668,35.645,31.250,5.371,0
1539623878.867,29.785,37.109,39.551,34.180,45.898,0
1539623878.871,33.203,37.598,33.691,36.133,38.086,0
1539623878.875,32.227,38.086,33.203,35.645,24.902,0
1539623878.879,26.855,37.598,38.574,31.738,40.527,0
1539623878.883,20.508,37.109,35.156,26.855,115.234,0
1539623878.887,16.602,38.086,36.133,25.879,135.742,0
1539623878.891,14.648,38.086,40.039,25.879,56.152,0
1539623878.895,16.113,36.621,40.039,24.414,14.160,0
1539623878.898,12.695,35.645,37.598,20.508,3.906,0
1539623878.902,10.254,33.691,35.156,19.043,16.602,0
1539623878.906,10.742,32.227,31.250,18.555,49.805,0
1539623878.910,16.602,33.203,34.668,19.531,50.293,0
1539623878.914,25.391,32.227,39.062,23.926,32.227,0
1539623878.918,17.090,34.668,40.039,22.949,52.734,0
1539623878.922,14.160,38.086,39.062,18.066,67.871,0
1539623878.926,25.391,38.574,41.504,22.461,72.266,0
1539623878.930,14.648,33.203,41.016,17.090,76.172,0
1539623878.934,5.859,28.320,37.598,11.719,18.555,0
1539623878.938,11.719,29.785,40.039,18.066,-27.344,0
1539623878.941,16.113,31.250,49.316,13.184,9.277,0
1539623878.945,24.414,32.715,51.270,10.254,22.461,0
1539623878.949,25.879,30.762,44.922,15.625,-19.043,0
1539623878.953,24.902,31.250,39.551,17.578,-4.395,0
1539623878.957,30.762,34.180,39.551,26.855,78.613,0
1539623878.961,22.949,33.691,41.992,30.273,58.594,0
1539623878.965,22.461,32.227,43.457,22.461,10.254,0
1539623878.969,28.809,32.227,44.434,23.438,51.758,0
1539623878.973,26.367,35.645,45.410,25.879,59.082,0
1539623878.977,24.902,37.109,44.434,28.320,-15.625,0
1539623878.980,30.762,36.133,41.504,29.297,7.324,0
1539623878.984,36.133,37.109,39.551,33.203,-0.977,0
1539623878.988,30.762,37.109,38.574,29.785,-64.941,0
1539623878.992,25.391,37.109,40.527,18.555,-23.926,0
1539623878.996,20.508,37.598,41.992,12.207,-2.930,0
1539623879.000,22.949,39.551,44.434,9.766,3.418,0
1539623879.004,23.438,40.527,42.969,12.695,68.359,0
1539623879.008,19.043,36.133,37.109,9.277,54.688,0
1539623879.012,19.531,36.621,35.156,7.324,-11.719,0
1539623879.016,20.020,37.598,35.645,8.789,-49.805,0
1539623879.020,20.996,37.109,37.598,11.230,-34.180,0
1539623879.023,19.043,37.598,38.574,17.090,21.973,0
1539623879.027,20.020,36.133,38.574,19.531,26.855,0
1539623879.031,30.273,36.133,41.992,24.902,13.672,0
1539623879.035,32.715,34.668,43.945,28.809,-8.789,0
1539623879.039,31.250,32.715,37.598,25.391,22.461,0
1539623879.043,38.574,34.668,36.621,25.879,74.219,0
1539623879.047,32.227,35.645,38.086,22.461,59.082,0
1539623879.051,31.250,34.180,38.086,20.996,27.832,0
1539623879.055,32.715,35.645,41.016,20.996,-20.508,0
1539623879.059,26.367,34.180,41.992,15.625,-4.395,0
1539623879.063,29.297,31.738,39.062,17.090,52.734,0
1539623879.066,31.250,37.598,33.203,12.695,57.617,0
1539623879.070,27.344,35.645,30.762,7.324,21.484,0
1539623879.074,31.738,33.691,32.227,14.160,1.465,0
1539623879.078,34.180,37.598,32.227,19.043,35.156,0
1539623879.082,34.180,41.504,32.227,13.184,23.926,0
1539623879.086,29.785,37.598,36.133,9.766,22.949,0
1539623879.090,31.738,33.203,38.574,16.113,6.836,0
1539623879.094,37.109,34.668,40.527,20.996,-6.348,0
1539623879.098,37.598,34.180,42.480,19.043,23.926,0
1539623879.102,36.621,33.203,39.551,17.090,47.363,0
1539623879.105,34.180,38.086,44.434,20.508,70.312,0
1539623879.109,42.969,41.992,44.434,25.879,37.109,0
1539623879.113,38.574,41.016,38.086,27.344,0.488,0
1539623879.117,30.273,39.062,41.504,29.297,26.855,0
1539623879.121,37.598,37.109,45.898,34.180,86.914,0
1539623879.125,42.969,35.156,43.945,35.156,88.379,0
1539623879.129,44.434,38.086,41.016,33.691,63.477,0
1539623879.133,45.898,40.039,41.504,27.344,64.453,0
1539623879.137,46.387,40.039,41.504,24.414,43.457,0
1539623879.141,42.480,40.039,39.551,23.926,56.641,0
1539623879.145,32.227,39.551,37.109,20.020,52.246,0
1539623879.148,27.832,41.504,37.598,24.414,59.082,0
1539623879.152,30.762,41.016,41.016,29.785,47.852,0
1539623879.156,35.156,42.480,40.527,28.320,-27.344,0
1539623879.160,35.156,45.410,39.062,27.832,-2.930,0
1539623879.164,34.668,44.434,43.457,31.738,13.672,0
1539623879.168,34.180,41.016,41.504,27.344,0.488,0
1539623879.172,25.391,36.133,37.598,18.066,45.898,0
1539623879.176,24.902,36.621,39.062,15.137,39.062,0
1539623879.180,26.367,39.551,40.039,17.090,60.059,0
1539623879.184,23.438,37.109,41.992,22.949,66.895,0
1539623879.188,26.855,36.621,41.504,25.391,10.254,0
1539623879.191,28.809,38.574,34.180,28.809,8.789,0
1539623879.195,25.391,37.109,35.156,33.203,18.066,0
1539623879.199,31.738,36.133,41.016,38.574,32.227,0
1539623879.203,38.574,38.086,41.504,44.922,51.270,0
1539623879.207,37.598,39.062,42.480,45.410,21.973,0
1539623879.211,45.898,40.039,41.504,45.410,41.504,0
1539623879.215,40.039,41.016,42.480,42.969,67.383,0
1539623879.219,28.809,39.062,41.504,39.062,17.578,0
1539623879.223,35.645,39.062,41.992,41.992,3.906,0
1539623879.227,41.992,37.109,41.504,47.363,16.113,0
1539623879.230,38.574,35.156,41.016,40.527,62.500,0
1539623879.234,32.715,39.551,41.016,31.250,89.355,0
1539623879.238,29.297,40.527,36.621,29.785,-11.719,0
1539623879.242,32.715,41.016,37.109,29.297,-4.395,0
1539623879.246,32.227,44.434,41.016,27.832,33.203,0
1539623879.250,22.461,41.016,38.086,22.949,69.824,0
1539623879.254,22.949,37.598,32.227,20.996,124.023,0
1539623879.258,26.367,39.551,34.668,22.949,24.902,0
1539623879.262,21.973,37.109,37.109,27.344,-4.395,0
1539623879.266,20.508,34.668,38.574,25.879,43.457,0
1539623879.270,22.461,34.180,40.039,28.320,51.270,0
1539623879.273,21.484,32.715,38.574,31.738,54.688,0
1539623879.277,20.508,34.180,35.156,22.949,88.867,0
1539623879.281,19.043,34.668,37.109,17.090,79.102,0
1539623879.285,13.672,40.039,35.645,20.020,25.391,0
1539623879.289,11.230,38.086,32.227,25.879,-5.371,0
1539623879.293,12.695,30.273,36.621,21.973,1.465,0
1539623879.297,12.207,32.227,37.598,10.254,-3.418,0
1539623879.301,18.066,35.156,39.551,15.625,-29.297,0
1539623879.305,13.672,35.645,40.527,19.531,19.043,0
1539623879.309,13.184,35.156,39.551,14.648,64.453,0
1539623879.313,20.508,38.086,40.039,17.578,51.270,0
1539623879.316,24.902,42.969,35.645,20.996,59.570,0
1539623879.320,26.855,41.016,32.227,18.066,14.160,0
1539623879.324,27.344,38.086,33.203,14.160,-20.508,0
1539623879.328,25.879,41.504,34.180,14.648,63.965,0
1539623879.332,22.949,39.551,35.645,18.555,73.242,0
1539623879.336,23.926,32.715,36.133,22.461,62.500,0
1539623879.340,26.367,34.668,39.062,24.414,-1.953,0
1539623879.344,27.344,34.668,41.504,26.367,-59.570,0
1539623879.348,36.621,37.109,40.039,28.809,63.477,0
1539623879.352,39.551,43.457,39.551,32.227,97.168,2
1539623879.355,36.133,40.039,39.062,35.156,22.949,0
1539623879.359,35.156,36.133,37.109,38.086,-8.789,0
1539623879.363,35.645,38.086,41.504,35.156,26.855,0
1539623879.367,35.156,37.109,43.457,28.809,49.805,0
1539623879.371,37.598,35.156,43.945,32.715,63.965,0
1539623879.375,42.969,37.598,48.340,33.691,54.688,0
1539623879.379,44.922,44.434,46.387,36.133,20.996,0
1539623879.383,43.457,44.434,41.016,38.086,8.789,0
1539623879.387,41.504,38.574,41.504,37.109,11.719,0
1539623879.391,41.016,40.527,40.039,37.109,50.293,0
1539623879.395,39.062,41.016,35.156,32.227,4.395,0
1539623879.398,35.645,41.016,33.691,33.691,-52.734,0
1539623879.402,34.668,41.504,35.645,32.227,-18.066,0
1539623879.406,37.598,40.527,35.156,26.855,5.371,0
1539623879.410,44.434,41.016,35.645,31.250,58.105,0
1539623879.414,42.969,44.434,35.645,32.227,71.289,0
1539623879.418,43.945,42.969,32.715,29.785,54.688,0
1539623879.422,49.805,43.945,33.691,33.691,32.227,0
1539623879.426,48.828,49.805,36.621,29.297,4.883,0
1539623879.430,48.340,45.410,36.621,22.461,17.578,0
1539623879.434,41.992,41.016,35.645,24.414,-11.719,0
1539623879.438,33.691,44.434,32.227,26.367,-19.531,0
1539623879.441,28.809,45.898,28.809,24.414,64.453,0
1539623879.445,31.250,43.945,26.855,27.832,109.863,0
1539623879.449,41.504,45.898,29.785,33.691,-0.977,0
1539623879.453,39.551,47.363,33.691,31.250,14.648,0
1539623879.457,40.527,47.363,33.691,34.180,68.359,0
1539623879.461,43.945,47.363,33.203,36.621,-2.441,0
1539623879.465,31.250,43.945,34.668,31.738,67.383,0
1539623879.469,32.715,41.992,36.133,25.879,94.727,0
1539623879.473,41.016,40.527,32.227,23.438,49.316,0
1539623879.477,34.668,38.086,33.691,26.855,88.867,0
1539623879.480,29.297,40.527,38.574,29.297,97.656,0
1539623879.484,31.738,41.016,41.016,27.832,33.691,0
1539623879.488,39.551,39.551,40.039,31.250,-3.418,0
1539623879.492,32.227,39.062,34.180,30.762,48.340,0
1539623879.496,29.297,40.527,37.109,29.297,75.195,0
1539623879.500,27.832,43.457,41.504,33.203,65.918,0
1539623879.504,29.297,41.992,42.480,33.691,75.684,0
1539623879.508,38.574,39.551,46.875,33.691,67.871,0
1539623879.512,31.250,36.621,45.898,33.203,60.547,0
1539623879.516,20.996,35.645,44.922,32.227,59.082,0
1539623879.520,19.531,38.574,45.410,31.250,53.711,0
1539623879.523,20.508,36.133,47.363,30.273,75.684,0
1539623879.527,27.832,36.621,45.898,36.133,98.633,0
1539623879.531,30.273,35.645,44.922,35.645,41.016,0
1539623879.535,27.832,33.691,49.805,33.203,-13.184,0
1539623879.539,35.645,37.109,49.316,30.273,7.812,0
1539623879.543,31.738,39.551,45.410,26.855,0.488,0
1539623879.547,22.461,40.527,41.504,27.832,-4.883,0
1539623879.551,26.855,39.062,41.016,25.879,3.906,0
1539623879.555,26.855,39.062,41.992,24.414,47.363,0
1539623879.559,30.273,40.527,41.992,27.832,21.973,0
1539623879.563,31.250,39.551,43.945,22.461,-25.879,0
1539623879.566,26.367,36.621,41.016,19.531,-39.062,0
1539623879.570,25.879,36.133,39.551,27.344,3.418,0
1539623879.574,31.738,37.109,41.016,33.203,51.758,0
1539623879.578,29.785,37.598,44.922,34.180,2.930,0
1539623879.582,28.320,37.109,45.410,34.668,4.395,0
1539623879.586,34.668,37.598,44.922,32.227,46.387,0
1539623879.590,34.668,33.691,48.340,28.320,51.270,0
1539623879.594,29.785,34.668,48.340,26.855,8.301,0
1539623879.598,24.414,38.574,43.457,28.320,53.223,0
1539623879.602,25.391,37.598,41.504,26.855,99.121,0
1539623879.605,20.508,39.062,38.574,21.484,60.059,0
1539623879.609,22.461,38.574,39.062,20.996,37.598,0
1539623879.613,19.531,37.598,47.363,19.531,53.223,0
1539623879.617,11.230,36.133,50.781,20.996,53.223,0
1539623879.621,12.207,33.691,49.316,12.695,-1.465,0
1539623879.625,10.742,35.156,43.457,9.277,20.020,0
1539623879.629,15.625,32.715,41.016,17.090,13.184,0
1539623879.633,26.367,31.738,41.504,18.555,-48.340,0
1539623879.637,21.973,38.086,41.016,16.113,17.090,0
1539623879.641,10.742,39.062,45.898,16.602,26.367,0
1539623879.645,16.113,36.621,48.828,21.973,4.395,0
1539623879.648,17.090,36.133,51.270,21.484,76.172,0
1539623879.652,16.602,32.715,47.852,19.531,38.086,0
1539623879.656,22.461,32.715,39.551,16.602,19.043,0
1539623879.660,16.602,33.203,41.016,14.160,73.242,0
1539623879.664,12.695,33.203,42.969,15.625,24.902,0
1539623879.668,22.949,36.133,44.434,15.137,-16.113,0
1539623879.672,23.926,36.133,47.363,15.137,-6.836,0
1539623879.676,16.602,37.598,47.363,16.113,35.645,0
1539623879.680,17.578,34.668,46.875,14.648,30.273,0
1539623879.684,24.902,29.785,44.434,14.160,31.738,0
1539623879.688,17.578,27.344,43.945,17.090,25.879,0
1539623879.691,17.578,28.320,45.410,18.066,25.391,0
1539623879.695,27.832,31.738,43.945,13.672,93.262,0
1539623879.699,22.461,29.297,37.109,10.742,25.879,0
1539623879.703,15.137,26.367,31.738,9.766,-8.301,0
1539623879.707,14.160,28.320,30.273,10.254,62.500,0
1539623879.711,14.160,32.715,30.762,7.324,71.289,0
1539623879.715,14.160,35.645,35.645,5.859,42.480,0
1539623879.719,15.137,34.668,36.133,8.301,36.133,0
1539623879.723,19.043,33.203,33.691,11.719,51.758,0
1539623879.727,23.438,33.203,35.156,19.043,74.219,0
1539623879.730,23.438,33.203,35.156,19.531,61.523,0
1539623879.734,21.973,35.645,37.109,13.672,18.555,0
1539623879.738,29.785,38.086,44.434,23.926,54.688,0
1539623879.742,34.668,38.086,44.922,26.367,38.574,0
1539623879.746,27.832,36.621,38.086,19.531,40.039,0
1539623879.750,24.902,36.133,38.086,23.438,67.383,0
1539623879.754,33.203,38.086,40.527,28.809,56.152,0
1539623879.758,38.574,37.109,36.133,31.250,54.199,0
1539623879.762,33.203,36.133,34.668,30.762,56.641,0
1539623879.766,29.297,37.109,38.086,32.715,83.496,0
1539623879.770,33.203,37.598,39.551,29.785,72.266,0
1539623879.773,33.203,36.621,36.133,30.273,51.758,0
1539623879.777,22.461,31.250,38.574,32.715,35.645,0
1539623879.781,16.113,35.156,39.062,32.227,56.152,0
1539623879.785,16.602,39.062,36.621,26.855,49.805,0
1539623879.789,20.020,34.668,37.109,19.043,40.527,0
1539623879.793,25.879,35.645,35.156,22.949,34.180,0
1539623879.797,24.902,37.109,33.203,28.320,-31.738,0
1539623879.801,22.461,37.598,33.691,20.996,5.859,0
1539623879.805,18.555,36.621,37.109,15.625,41.992,0
1539623879.809,13.672,36.621,38.574,21.973,20.020,0
1539623879.813,17.578,36.133,41.992,26.855,69.824,0
1539623879.816,20.996,30.762,47.363,29.785,38.574,0
1539623879.820,22.461,33.691,49.316,24.414,-26.367,0
1539623879.824,21.973,34.668,41.504,21.484,6.836,0
1539623879.828,24.414,29.785,32.227,27.344,-21.973,0
1539623879.832,22.461,30.273,33.691,25.879,-26.855,0
1539623879.836,22.461,30.762,39.062,25.879,28.809,0
1539623879.840,34.180,35.156,41.992,29.297,39.062,0
1539623879.844,47.363,41.016,44.922,28.809,22.949,0
1539623879.848,42.969,39.062,45.410,27.832,35.156,0
1539623879.852,35.156,39.062,41.992,25.879,57.617,0
1539623879.855,45.898,38.086,45.898,28.320,88.867,0
1539623879.859,42.480,38.086,46.875,31.250,77.148,0
1539623879.863,32.715,45.410,43.457,33.203,-3.418,0
1539623879.867,36.133,47.363,44.434,36.133,12.207,0
1539623879.871,41.504,41.016,45.898,37.598,38.574,0
1539623879.875,39.062,39.062,45.410,40.527,22.949,0
1539623879.879,35.645,41.016,47.363,37.598,53.223,0
1539623879.883,41.992,41.992,46.387,41.504,-20.508,0
1539623879.887,46.875,41.504,41.504,41.992,-29.297,0
1539623879.891,45.410,41.016,43.457,34.668,47.852,0
1539623879.895,44.434,41.016,40.039,30.762,17.578,0
1539623879.898,44.922,39.551,37.598,34.668,5.371,0
1539623879.902,38.574,38.574,40.527,34.668,53.223,0
1539623879.906,35.645,41.992,38.574,34.180,98.633,0
1539623879.910,39.062,42.969,38.086,36.621,39.062,0
1539623879.914,43.457,41.504,38.086,36.133,47.363,0
1539623879.918,47.852,43.457,36.133,36.621,90.332,0
1539623879.922,42.969,42.969,38.086,37.598,65.430,0
1539623879.926,39.062,39.551,38.086,36.133,95.215,0
1539623879.930,34.180,39.062,34.180,32.715,76.172,0
1539623879.934,31.738,38.574,36.621,30.273,78.125,0
1539623879.938,31.250,37.109,37.109,30.762,128.906,0
1539623879.941,30.273,38.086,36.621,30.762,69.824,0
1539623879.945,27.344,38.574,40.527,27.832,29.785,0
1539623879.949,32.715,36.133,41.016,29.297,28.809,0
1539623879.953,39.062,30.273,40.039,31.250,30.762,0
1539623879.957,34.668,26.367,41.016,33.203,32.227,0
1539623879.961,33.691,29.785,45.410,34.668,12.695,0
1539623879.965,35.156,32.227,49.316,36.621,20.020,0
1539623879.969,27.344,33.203,47.363,36.621,73.242,0
1539623879.973,22.949,33.203,41.504,34.668,67.383,0
1539623879.977,25.391,30.762,39.551,36.621,28.809,0
1539623879.980,21.973,33.203,41.992,28.809,23.438,0
1539623879.984,18.066,32.715,39.062,19.043,49.805,0
1539623879.988,20.996,30.273,34.668,24.902,47.363,0
1539623879.992,27.832,34.180,34.668,34.180,50.781,0
1539623879.996,30.762,38.574,38.574,35.645,26.855,0
1539623880.000,29.297,38.574,37.109,29.785,22.949,0
1539623880.004,25.879,37.109,34.668,25.879,48.340,0
1539623880.008,30.273,38.086,36.621,29.785,56.152,0
1539623880.012,32.227,37.598,38.574,37.109,45.898,0
1539623880.016,29.785,34.668,41.992,31.250,39.551,0
1539623880.020,32.715,37.109,43.945,28.809,50.781,0
1539623880.023,32.227,41.504,47.363,32.715,48.828,0
1539623880.027,25.391,39.062,41.016,22.949,5.371,0
1539623880.031,18.555,37.109,30.273,23.926,-7.324,0
1539623880.035,27.832,37.598,36.133,32.715,59.570,0
1539623880.039,36.621,38.086,39.062,25.391,56.152,0
1539623880.043,37.598,39.062,33.203,21.973,30.762,0
1539623880.047,41.992,33.203,38.086,34.668,5.371,0
1539623880.051,40.039,21.973,39.551,39.551,-6.348,0
1539623880.055,30.762,25.879,42.480,29.297,26.367,0
1539623880.059,30.273,40.527,34.180,27.344,9.277,0
1539623880.063,33.691,50.781,19.531,34.668,42.480,0
1539623880.066,36.621,46.875,33.203,34.668,64.453,0
1539623880.070,41.504,37.598,50.293,33.203,33.691,0
1539623880.074,33.203,42.480,50.781,28.320,26.855,0
1539623880.078,23.926,49.316,46.387,23.926,34.180,0
1539623880.082,31.738,52.246,48.828,25.879,32.227,0
1539623880.086,36.621,54.199,47.852,31.250,29.297,0
1539623880.090,35.645,53.223,44.922,33.203,19.043,0
1539623880.094,42.969,49.316,45.410,33.691,19.043,0
1539623880.098,47.363,49.316,45.410,37.598,62.012,0
1539623880.102,50.293,44.922,46.875,42.969,31.250,0
1539623880.105,48.340,39.551,45.898,40.527,5.859,0
1539623880.109,34.668,39.062,44.922,33.691,42.480,0
1539623880.113,39.062,37.598,40.527,39.062,-6.348,0
1539623880.117,41.992,39.062,38.086,39.062,-9.277,0
1539623880.121,34.180,39.062,39.551,30.273,29.785,0
1539623880.125,32.715,43.457,35.645,29.297,18.555,0
1539623880.129,32.715,50.293,36.133,33.203,17.578,0
1539623880.133,33.691,42.969,38.086,28.809,9.277,0
1539623880.137,31.250,37.109,36.621,25.879,22.461,0
1539623880.141,30.273,42.480,39.062,26.855,31.250,0
1539623880.145,32.715,41.504,41.504,28.809,28.809,0
1539623880.148,30.762,35.645,42.480,30.273,61.035,0
1539623880.152,28.320,35.645,42.480,28.809,46.875,0
1539623880.156,30.273,37.598,47.363,29.297,7.324,0
1539623880.160,27.832,36.621,47.363,26.367,7.324,0
1539623880.164,30.762,34.180,44.922,25.391,19.043,0
1539623880.168,35.645,34.180,47.363,26.367,42.480,0
1539623880.172,27.344,36.133,45.898,25.879,57.617,0
1539623880.176,21.973,36.621,47.363,26.367,-15.137,0
1539623880.180,19.531,33.203,49.316,21.973,-42.480,0
1539623880.184,15.137,33.203,45.898,22.461,45.898,0
1539623880.188,18.555,35.156,40.527,34.668,57.617,0
1539623880.191,18.555,31.738,39.551,33.691,59.082,0
1539623880.195,19.531,36.133,41.992,24.902,31.250,0
1539623880.199,26.367,39.551,42.969,25.391,26.367,0
1539623880.203,24.414,35.156,41.504,28.809,64.453,0
1539623880.207,20.996,36.621,39.551,28.809,40.527,0
1539623880.211,21.484,37.109,35.156,28.809,21.973,0
1539623880.215,23.926,36.133,31.250,30.273,28.809,0
1539623880.219,31.250,39.062,36.133,37.109,-6.348,0
1539623880.223,36.621,37.598,40.527,37.598,10.254,0
1539623880.227,35.645,32.227,38.574,32.227,3.906,0
1539623880.230,34.180,30.762,39.551,35.156,-46.387,0
1539623880.234,31.738,31.738,40.039,30.273,-3.906,0
1539623880.238,31.738,32.715,43.457,27.344,23.438,0
1539623880.242,35.645,34.668,45.410,36.621,34.668,0
1539623880.246,36.133,39.551,45.898,33.203,11.719,0
1539623880.250,25.879,37.598,43.945,29.297,-9.766,0
1539623880.254,26.855,35.156,44.434,36.133,2.930,0
1539623880.258,29.297,34.180,43.457,27.832,8.789,0
1539623880.262,22.949,30.762,37.598,23.438,44.434,0
1539623880.266,25.879,31.738,39.062,26.855,49.316,0
1539623880.270,23.926,30.762,40.039,18.555,28.809,0
1539623880.273,20.508,31.250,38.574,18.066,27.832,0
1539623880.277,28.320,37.598,37.598,19.531,20.996,0
1539623880.281,32.715,36.133,34.668,15.625,29.785,0
1539623880.285,24.414,31.738,32.715,17.090,60.059,0
1539623880.289,21.484,32.715,32.227,17.578,57.617,0
1539623880.293,24.902,33.203,34.180,19.531,60.059,0
1539623880.297,23.438,33.691,37.109,17.090,43.457,0
1539623880.301,20.996,34.668,35.156,19.043,30.762,0
1539623880.305,26.367,31.250,34.668,25.879,24.902,0
1539623880.309,33.691,33.203,31.250,24.902,35.645,0
1539623880.313,29.297,40.527,23.926,20.996,-10.254,0
1539623880.316,19.531,34.668,25.391,11.230,-2.930,0
1539623880.320,18.066,27.832,30.762,8.789,48.340,0
1539623880.324,17.578,30.762,28.809,18.555,-0.977,0
1539623880.328,21.484,33.691,28.809,20.996,25.391,0
1539623880.332,27.832,36.133,29.785,23.438,40.039,0
1539623880.336,29.297,38.574,32.227,28.320,44.922,0
1539623880.340,32.715,38.574,34.180,28.809,48.340,0
1539623880.344,36.133,35.645,33.203,24.902,15.625,0
1539623880.348,35.645,37.598,36.621,25.391,33.203,0
1539623880.352,33.691,37.598,37.598,26.855,39.062,0
1539623880.355,36.621,35.645,36.621,24.414,32.227,0
1539623880.359,36.133,38.574,36.133,21.484,6.836,0
1539623880.363,30.273,37.598,35.156,21.973,18.555,0
1539623880.367,23.926,34.180,38.574,20.996,33.203,0
1539623880.371,20.508,37.109,40.039,19.531,17.578,0
1539623880.375,20.020,39.062,41.992,21.973,30.273,0
1539623880.379,20.508,38.086,41.992,20.020,70.312,0
1539623880.383,25.391,38.086,38.574,22.949,48.828,0
1539623880.387,27.832,33.203,43.945,26.367,37.109,0
1539623880.391,25.879,33.203,47.852,23.926,40.527,0
1539623880.395,27.832,37.109,43.945,24.902,28.320,0
1539623880.398,34.180,33.691,41.504,27.832,23.438,0
1539623880.402,35.156,32.715,37.598,24.414,4.883,0
1539623880.406,35.156,33.691,34.668,20.020,-12.207,0
1539623880.410,39.551,34.668,39.551,25.879,5.859,0
1539623880.414,42.969,38.574,40.527,32.715,60.059,0
1539623880.418,43.945,36.621,39.551,29.785,55.664,0
1539623880.422,38.086,37.598,39.062,24.902,41.016,0
1539623880.426,37.109,44.434,36.621,30.273,31.250,0
1539623880.430,39.551,43.945,38.086,35.645,34.668,0
1539623880.434,39.062,41.016,41.016,33.691,22.949,0
1539623880.438,40.527,42.480,41.992,34.668,-23.438,0
1539623880.441,43.945,46.875,44.434,38.574,26.367,0
1539623880.445,44.434,43.457,41.992,44.922,107.422,0
1539623880.449,40.527,38.086,40.039,42.480,67.871,0
1539623880.453,38.574,37.598,40.527,36.133,42.480,0
1539623880.457,38.574,39.551,40.527,35.156,60.059,0
1539623880.461,40.527,38.574,41.992,32.715,49.805,0
1539623880.465,42.969,37.109,43.457,33.691,88.867,0
1539623880.469,34.668,40.039,41.016,30.762,99.121,0
1539623880.473,35.645,42.969,37.598,28.809,46.387,0
1539623880.477,38.574,41.992,34.180,31.250,55.664,0
1539623880.480,29.785,35.156,33.203,25.391,14.648,0
1539623880.484,27.344,31.738,34.180,22.461,-13.672,0
1539623880.488,30.273,34.180,40.039,21.973,19.043,0
1539623880.492,33.203,38.574,41.016,16.113,-10.254,0
1539623880.496,30.273,38.574,34.668,15.625,-16.113,0
1539623880.500,26.367,36.133,35.645,23.926,16.113,0
1539623880.504,27.832,39.062,35.645,24.902,41.992,0
1539623880.508,21.484,36.133,39.062,26.855,65.918,0
1539623880.512,14.160,27.832,42.969,26.855,30.762,0
1539623880.516,22.461,29.297,41.016,34.668,-11.719,0
1539623880.520,29.785,33.691,43.457,38.086,24.902,0
1539623880.523,25.879,34.180,43.945,33.203,25.879,0
1539623880.527,28.320,32.227,41.016,30.762,24.414,0
1539623880.531,31.738,32.227,43.457,30.762,42.969,0
1539623880.535,33.691,36.621,48.828,30.273,13.184,0
1539623880.539,31.250,37.109,51.270,30.762,43.945,0
1539623880.543,24.902,32.715,49.316,28.809,51.270,0
1539623880.547,26.367,33.203,45.898,26.855,19.043,0
1539623880.551,26.367,38.574,41.992,28.320,41.504,0
1539623880.555,18.066,37.598,38.086,19.531,-0.488,0
1539623880.559,16.113,38.574,39.551,20.996,9.277,0
1539623880.563,20.020,42.969,40.039,28.809,38.574,0
1539623880.566,24.414,41.016,37.598,28.809,-9.277,0
1539623880.570,27.832,33.691,39.062,24.902,12.695,0
1539623880.574,23.438,30.273,41.016,26.367,3.418,0
1539623880.578,23.926,31.250,39.551,30.273,-14.648,0
1539623880.582,28.809,31.250,42.480,31.738,79.102,0
1539623880.586,27.344,35.645,46.387,33.691,81.543,0
1539623880.590,29.297,37.109,45.898,31.738,48.340,0
1539623880.594,33.691,35.645,45.898,29.297,62.500,0
1539623880.598,29.297,34.668,44.434,24.902,60.059,0
1539623880.602,25.391,32.715,46.387,22.949,14.160,0
1539623880.605,25.391,33.691,50.781,27.832,-0.977,0
1539623880.609,26.855,33.203,51.270,28.809,-8.789,0
1539623880.613,25.879,32.227,50.781,22.949,-7.812,0
1539623880.617,24.902,33.691,47.363,24.902,10.254,0
1539623880.621,24.902,36.621,43.457,22.461,62.988,0
1539623880.625,26.855,35.645,45.410,24.414,67.871,0
1539623880.629,30.762,34.180,42.969,30.273,23.926,0
1539623880.633,32.227,31.738,39.551,27.832,92.285,0
1539623880.637,39.551,34.180,41.504,31.738,91.797,0
1539623880.641,37.598,39.062,43.945,27.832,46.875,0
1539623880.645,25.391,36.621,42.969,23.438,4.883,0
1539623880.648,20.020,32.715,38.574,28.320,69.824,0
1539623880.652,30.273,31.738,41.504,31.738,74.707,0
1539623880.656,32.715,32.227,45.410,31.250,-40.039,0
1539623880.660,26.855,33.203,40.527,25.879,12.695,0
1539623880.664,31.738,38.086,39.551,26.855,59.082,0
1539623880.668,35.156,39.551,46.387,28.809,28.320,0
1539623880.672,33.691,38.086,48.340,22.949,50.781,0
1539623880.676,40.527,41.016,47.363,27.344,40.039,1
1539623880.680,40.527,43.457,40.039,30.762,30.273,0
1539623880.684,36.133,45.410,34.180,24.902,34.668,0
1539623880.688,41.992,45.410,37.598,24.414,41.504,0
1539623880.691,39.062,44.434,37.598,23.926,72.266,0
1539623880.695,35.645,41.504,35.156,20.508,36.621,0
1539623880.699,34.668,35.645,34.180,22.461,41.504,0
1539623880.703,28.320,35.645,38.086,26.367,28.320,0
1539623880.707,23.926,33.691,41.504,22.461,24.414,0
1539623880.711,31.250,30.762,38.574,21.973,94.238,0
1539623880.715,36.621,33.691,38.574,24.902,57.617,0
1539623880.719,30.762,36.133,41.992,22.461,41.016,0
1539623880.723,37.109,41.016,40.527,27.344,69.336,0
1539623880.727,35.645,45.410,35.156,27.832,97.656,0
1539623880.730,33.691,42.969,36.621,18.066,58.594,0
1539623880.734,31.738,36.133,33.203,13.184,41.504,0
1539623880.738,29.297,34.180,30.273,12.207,75.195,0
1539623880.742,29.297,34.668,36.621,13.672,53.711,0
1539623880.746,20.508,32.715,40.039,18.066,14.160,0
1539623880.750,22.461,34.180,42.480,21.973,-16.602,0
1539623880.754,24.414,36.133,42.480,25.391,14.160,0
1539623880.758,20.020,35.156,43.457,21.484,7.324,0
1539623880.762,22.461,34.180,45.410,17.090,5.859,0
1539623880.766,17.578,35.156,41.016,13.672,-20.996,0
1539623880.770,15.625,39.062,36.621,15.137,-14.648,0
1539623880.773,21.973,39.062,38.574,20.508,66.406,0
1539623880.777,22.461,36.621,38.086,20.996,68.359,0
1539623880.781,25.879,36.621,38.086,20.996,73.730,0
1539623880.785,23.926,36.133,39.062,23.926,-13.672,0
1539623880.789,24.902,40.527,38.574,28.320,-23.926,0
1539623880.793,30.273,40.039,41.016,25.391,29.785,0
1539623880.797,32.227,36.621,38.574,33.691,22.949,0
1539623880.801,33.691,37.598,37.109,44.434,27.344,0
1539623880.805,39.062,36.133,39.551,42.480,5.371,0
1539623880.809,38.086,38.086,41.504,36.621,-19.043,0
1539623880.813,34.180,42.480,41.992,33.691,-18.555,0
1539623880.816,40.527,38.574,42.969,32.715,40.527,0
1539623880.820,43.457,35.645,42.969,27.832,11.230,0
1539623880.824,36.133,35.645,41.016,29.297,5.371,0
1539623880.828,29.297,36.133,37.109,28.320,33.691,0
1539623880.832,32.227,40.527,38.574,27.344,1.953,0
1539623880.836,35.156,41.504,39.551,32.227,-8.789,0
1539623880.840,40.527,41.016,36.133,30.762,11.230,0
1539623880.844,39.551,44.434,38.086,25.879,27.832,0
1539623880.848,37.109,45.410,43.457,25.879,34.180,0
1539623880.852,44.434,44.434,42.969,32.227,45.410,0
1539623880.855,41.016,41.016,37.109,26.367,36.621,0
1539623880.859,39.551,41.504,34.180,20.508,24.902,0
1539623880.863,47.852,45.410,36.133,25.879,55.664,0
1539623880.867,45.410,48.340,38.086,23.926,84.473,0
1539623880.871,38.574,44.434,36.133,27.344,57.617,0
1539623880.875,39.551,42.480,36.133,33.203,36.133,0
1539623880.879,37.109,39.551,38.574,32.715,24.902,0
1539623880.883,29.297,35.645,36.621,30.762,48.828,0
1539623880.887,27.344,39.062,33.691,28.320,44.434,0
1539623880.891,28.809,41.504,35.645,27.832,72.754,0
1539623880.895,37.109,44.922,42.480,34.668,61.035,0
1539623880.898,41.992,49.316,44.922,34.180,2.441,0
1539623880.902,39.551,45.898,47.852,35.156,60.547,0
1539623880.906,45.410,42.969,48.828,43.457,34.180,0
1539623880.910,48.340,42.969,43.945,34.668,43.457,0
1539623880.914,41.992,41.504,41.992,26.367,100.586,0
1539623880.918,40.527,41.504,38.574,29.785,72.754,0
1539623880.922,40.527,45.410,36.621,34.668,32.227,0
1539623880.926,32.227,52.734,38.574,29.297,13.672,0
1539623880.930,26.855,49.316,35.645,21.484,5.371,0
1539623880.934,30.762,45.410,32.227,27.344,34.668,0
1539623880.938,34.180,45.410,38.086,35.156,3.906,0
1539623880.941,29.785,41.504,38.086,29.785,-9.766,0
1539623880.945,24.414,39.551,38.086,19.531,14.648,0
1539623880.949,21.973,36.133,35.645,15.137,20.508,0
1539623880.953,22.461,38.086,32.227,20.508,29.785,0
1539623880.957,18.066,39.551,36.133,21.973,2.930,0
1539623880.961,16.113,37.109,37.109,18.555,-31.738,0
1539623880.965,19.043,39.062,40.039,21.484,-29.785,0
1539623880.969,22.949,41.016,43.457,27.832,37.109,0
1539623880.973,25.391,40.039,46.387,24.902,68.848,0
1539623880.977,27.344,39.062,43.945,23.438,42.480,0
1539623880.980,26.367,36.621,41.016,27.832,-7.812,0
1539623880.984,23.438,33.203,41.992,29.785,-43.457,0
1539623880.988,26.855,31.250,42.969,31.250,14.648,0
1539623880.992,20.996,33.203,39.551,24.414,77.148,0
1539623880.996,20.996,36.133,38.086,20.508,76.172,0
1539623881.000,21.973,38.574,44.434,23.926,67.871,0
1539623881.004,23.926,36.621,45.410,28.809,29.785,0
1539623881.008,29.785,32.715,40.527,27.344,36.621,0
1539623881.012,27.832,32.715,34.668,24.414,68.359,0
1539623881.016,27.832,34.180,33.691,21.484,59.570,0
1539623881.020,33.691,35.645,35.645,20.020,51.270,0
1539623881.023,37.109,34.180,33.203,26.855,47.363,0
1539623881.027,26.855,33.203,28.809,29.297,29.785,0
1539623881.031,22.461,33.203,29.297,31.250,48.828,0
1539623881.035,26.367,33.691,34.668,31.250,34.668,0
1539623881.039,27.344,33.203,37.109,27.832,33.691,0
1539623881.043,21.484,30.762,41.504,32.715,43.945,0
1539623881.047,22.949,36.133,41.016,33.203,47.852,0
1539623881.051,27.832,41.504,37.598,32.227,40.039,0
1539623881.055,23.926,38.086,35.645,31.738,70.312,0
1539623881.059,23.438,34.180,34.180,30.762,58.105,0
1539623881.063,26.367,33.203,36.621,29.785,-28.320,0
1539623881.066,24.902,36.133,40.039,29.297,7.812,0
1539623881.070,25.879,36.621,38.574,24.414,28.320,0
1539623881.074,28.809,36.133,34.668,22.461,4.883,0
1539623881.078,25.391,35.645,33.691,17.578,-3.906,0
1539623881.082,16.113,31.250,33.691,9.766,18.066,0
1539623881.086,22.949,31.738,37.109,16.113,6.836,0
1539623881.090,28.320,33.691,38.086,21.973,6.836,0
1539623881.094,19.043,32.715,36.621,22.461,46.875,0
1539623881.098,23.438,29.785,39.062,22.949,66.895,0
1539623881.102,23.926,30.762,38.574,27.344,78.125,0
1539623881.105,28.320,34.180,41.504,28.809,68.848,0
1539623881.109,34.180,34.180,42.480,24.414,22.461,0
1539623881.113,29.785,32.715,38.574,24.414,14.648,0
1539623881.117,36.621,35.645,38.086,31.738,46.387,0
1539623881.121,32.227,34.668,42.480,36.621,36.133,0
1539623881.125,28.809,31.738,44.434,33.203,84.961,0
1539623881.129,37.598,35.156,38.574,32.227,86.914,0
1539623881.133,39.062,38.086,34.668,31.738,54.688,0
1539623881.137,39.551,36.133,39.551,30.762,75.684,0
1539623881.141,37.598,35.156,40.527,31.738,76.660,0
1539623881.145,39.062,35.645,38.086,37.109,96.191,0
1539623881.148,42.969,35.645,42.480,33.691,45.410,0
1539623881.152,46.875,35.645,41.504,30.273,0.488,0
1539623881.156,35.156,36.133,35.156,28.809,-17.578,0
1539623881.160,33.203,37.109,37.109,31.250,15.625,0
1539623881.164,43.457,36.621,41.504,35.156,86.914,0
1539623881.168,35.645,38.574,41.992,33.691,62.988,0
1539623881.172,29.785,39.551,42.480,32.227,52.734,0
1539623881.176,37.598,38.574,41.504,36.621,-8.301,0
1539623881.180,41.504,37.109,39.062,37.598,24.414,0
1539623881.184,37.598,37.109,38.574,34.180,86.914,0
1539623881.188,28.809,35.645,41.504,30.273,44.434,0
1539623881.191,29.785,36.133,40.039,34.180,46.387,0
1539623881.195,38.574,40.527,41.992,36.133,34.668,0
1539623881.199,34.180,38.574,42.969,30.762,15.625,0
1539623881.203,27.344,35.645,44.434,30.762,14.648,0
1539623881.207,32.715,41.016,42.480,29.297,-0.977,0
1539623881.211,35.645,41.992,38.086,29.297,-1.953,0
1539623881.215,27.832,43.945,40.039,34.180,28.809,0
1539623881.219,27.344,48.340,40.527,35.645,7.324,0
1539623881.223,24.414,43.945,44.922,33.203,-46.875,0
1539623881.227,20.508,39.062,46.875,34.180,-64.453,0
1539623881.230,25.391,37.109,44.922,38.574,-40.527,0
1539623881.234,26.367,35.156,43.457,41.992,5.859,0
1539623881.238,28.809,38.574,45.898,43.457,15.137,0
1539623881.242,35.156,40.527,47.852,36.621,14.160,0
1539623881.246,34.180,38.574,44.922,27.832,64.941,0
1539623881.250,33.203,38.086,44.434,27.832,48.828,0
1539623881.254,28.320,37.109,42.480,26.855,45.410,0
1539623881.258,32.227,39.062,42.969,27.344,71.777,0
1539623881.262,39.551,41.016,45.410,30.762,73.730,0
1539623881.266,33.691,41.504,43.457,34.668,64.941,0
1539623881.270,30.273,39.551,40.527,36.621,19.043,0
1539623881.273,31.250,35.645,42.480,33.691,20.020,0
1539623881.277,31.738,33.203,44.434,33.691,70.801,0
1539623881.281,37.109,35.645,45.898,41.016,56.641,0
1539623881.285,41.016,35.645,46.875,41.992,61.523,0
1539623881.289,43.457,37.109,42.480,37.109,30.762,0
1539623881.293,42.480,38.574,40.039,37.109,26.855,0
1539623881.297,39.062,39.062,39.551,35.156,59.570,0
1539623881.301,41.504,44.922,38.086,30.273,71.289,0
1539623881.305,38.086,43.457,38.574,29.297,43.945,0
1539623881.309,39.551,36.621,41.016,28.809,16.602,0
1539623881.313,38.574,36.621,43.945,32.227,18.555,0
1539623881.316,26.855,39.062,37.109,29.785,-1.465,0
1539623881.320,25.391,39.551,28.320,24.414,-22.461,0
1539623881.324,30.762,39.551,28.809,30.762,-19.531,0
1539623881.328,33.691,40.039,36.621,28.320,-25.879,0
1539623881.332,33.691,38.574,40.527,24.902,20.508,0
1539623881.336,29.785,39.062,36.621,27.344,37.109,0
1539623881.340,24.902,40.527,36.621,26.367,16.113,0
1539623881.344,31.738,41.016,40.527,33.691,-18.555,0
1539623881.348,27.832,40.527,43.457,30.762,-45.898,0
1539623881.352,16.113,37.598,39.062,27.344,3.418,0
1539623881.355,23.438,37.598,41.992,36.621,41.504,0
1539623881.359,31.738,40.039,44.922,39.551,6.836,0
1539623881.363,33.203,36.133,39.551,34.668,23.926,0
1539623881.367,30.762,31.738,40.527,38.086,58.594,0
1539623881.371,31.738,36.621,42.480,36.621,68.359,0
1539623881.375,37.598,41.016,40.527,32.227,52.246,0
1539623881.379,42.480,39.551,39.551,33.691,38.086,0
1539623881.383,42.480,38.086,37.109,29.785,32.227,0
1539623881.387,44.434,43.457,39.062,32.227,9.766,0
1539623881.391,47.852,45.898,43.945,31.250,20.996,0
1539623881.395,34.668,45.410,47.852,24.414,63.477,0
1539623881.398,26.367,47.363,43.945,25.391,50.781,0
1539623881.402,33.203,41.992,38.574,31.738,46.875,0
1539623881.406,38.574,40.039,41.992,33.691,101.562,0
1539623881.410,39.062,41.992,39.062,25.391,47.852,0
1539623881.414,30.762,40.527,36.621,23.926,70.312,0
1539623881.418,31.738,40.527,39.551,31.250,108.398,0
1539623881.422,31.738,42.480,40.527,27.344,92.285,0
1539623881.426,33.691,40.039,42.969,26.367,114.258,0
1539623881.430,35.156,39.551,42.480,29.785,81.055,0
1539623881.434,33.691,40.527,42.969,30.762,19.043,0
1539623881.438,38.574,37.109,44.922,31.738,8.789,0
1539623881.441,33.691,34.668,41.016,25.879,27.344,0
1539623881.445,32.227,34.668,38.574,25.879,-7.324,0
1539623881.449,31.738,36.133,38.086,29.297,-20.020,0
1539623881.453,33.203,35.156,38.574,25.879,13.184,0
1539623881.457,32.227,37.109,40.039,24.902,42.480,0
1539623881.461,29.785,42.969,41.504,27.832,43.945,0
1539623881.465,28.320,41.992,41.992,18.066,68.359,0
1539623881.469,23.926,42.480,39.062,16.602,16.113,0
1539623881.473,22.949,41.992,39.062,20.508,7.812,0
1539623881.477,22.461,37.109,38.086,18.066,74.707,0
1539623881.480,27.832,35.645,36.133,18.555,49.316,0
1539623881.484,22.949,35.156,34.668,14.648,47.852,0
1539623881.488,20.508,36.621,33.203,18.066,23.438,0
1539623881.492,26.855,38.574,36.621,18.555,40.527,0
1539623881.496,26.855,39.551,37.109,19.531,42.480,0
1539623881.500,29.785,38.574,33.691,26.367,-12.207,0
1539623881.504,33.203,35.645,33.691,22.461,15.137,0
1539623881.508,37.598,38.086,32.715,20.996,-26.367,0
1539623881.512,39.551,39.551,33.203,28.809,-4.883,0
1539623881.516,38.086,38.086,36.133,28.809,69.336,0
1539623881.520,32.715,37.598,37.598,31.738,26.855,0
1539623881.523,31.738,41.016,43.457,35.156,33.203,0
1539623881.527,37.109,41.504,45.410,28.320,-9.277,0
1539623881.531,28.809,33.203,38.574,19.531,-31.738,0
1539623881.535,28.809,36.133,35.156,21.484,-17.578,0
1539623881.539,29.297,37.598,36.621,22.949,0.488,0
1539623881.543,25.879,34.668,38.574,23.926,34.180,0
1539623881.547,32.227,36.621,37.598,23.926,16.113,0
1539623881.551,30.273,36.621,38.086,21.973,68.359,0
1539623881.555,24.414,34.180,38.086,21.484,68.359,0
1539623881.559,29.785,38.574,35.156,25.391,-3.906,0
1539623881.563,33.203,41.992,36.621,25.391,-1.953,0
1539623881.566,35.156,43.457,39.062,30.273,27.344,0
1539623881.570,39.062,46.875,37.598,30.762,-20.996,0
1539623881.574,28.320,41.504,33.203,18.066,-22.949,0
1539623881.578,25.879,36.621,30.762,22.949,19.043,0
1539623881.582,32.227,37.109,29.297,26.855,17.578,0
1539623881.586,27.344,36.621,26.367,18.066,14.160,0
1539623881.590,22.461,35.156,25.879,20.996,37.109,0
1539623881.594,19.043,37.109,26.855,20.996,69.824,0
1539623881.598,22.949,37.598,30.273,21.484,82.031,0
1539623881.602,31.738,38.086,34.180,28.809,26.855,0
1539623881.605,26.855,37.109,36.133,24.902,-1.465,0
1539623881.609,26.367,34.180,36.133,26.855,57.617,0
1539623881.613,34.180,34.180,39.551,33.203,69.824,0
1539623881.617,30.762,34.180,39.551,32.227,46.875,0
1539623881.621,24.902,29.785,38.086,29.297,76.660,0
1539623881.625,19.043,30.762,38.574,25.391,41.992,0
1539623881.629,24.902,33.691,38.574,25.391,30.273,0
1539623881.633,28.809,35.645,38.086,23.926,62.500,0
1539623881.637,24.414,36.621,36.621,21.973,69.336,0
1539623881.641,26.855,39.062,38.574,25.391,51.758,0
1539623881.645,26.367,41.992,38.086,24.902,34.180,0
1539623881.648,30.762,39.551,36.621,26.855,60.547,0
1539623881.652,32.715,35.156,38.574,29.297,25.879,0
1539623881.656,28.320,31.250,38.086,27.832,2.930,0
1539623881.660,32.227,33.691,39.551,30.273,37.598,0
1539623881.664,35.645,40.039,37.598,32.227,36.621,0
1539623881.668,38.086,37.598,35.156,33.691,48.340,0
1539623881.672,35.645,37.598,35.156,34.180,82.031,0
1539623881.676,31.250,41.016,36.621,28.809,57.129,0
1539623881.680,26.855,40.527,35.156,25.391,19.043,0
1539623881.684,24.902,38.574,36.133,28.320,36.621,0
1539623881.688,27.832,37.109,43.457,28.320,39.551,0
1539623881.691,25.879,40.527,41.504,27.832,78.613,0
1539623881.695,15.625,41.992,38.086,24.902,47.363,0
1539623881.699,15.137,38.086,37.109,22.461,21.973,0
1539623881.703,15.137,41.504,35.156,21.484,42.480,0
1539623881.707,17.578,42.969,34.668,19.043,17.578,0
1539623881.711,26.855,43.457,34.180,21.973,-5.859,0
1539623881.715,20.508,43.457,30.273,23.926,-10.742,0
1539623881.719,19.531,41.992,32.227,24.414,6.836,0
1539623881.723,25.391,42.480,35.156,17.578,-20.508,0
1539623881.727,18.555,38.574,28.320,8.301,9.277,0
1539623881.730,20.020,38.574,28.320,14.160,19.043,0
1539623881.734,28.809,38.086,31.250,18.555,-12.207,0
1539623881.738,25.879,36.621,31.738,17.578,-8.301,0
1539623881.742,16.113,36.621,36.621,16.113,25.879,0
1539623881.746,21.973,37.109,36.133,16.602,43.457,0
1539623881.750,26.855,39.062,35.156,20.020,-8.789,0
1539623881.754,23.438,43.945,38.086,21.484,-20.508,0
1539623881.758,21.973,44.434,37.598,23.926,-2.441,0
1539623881.762,25.391,42.969,38.086,27.832,10.254,0
1539623881.766,26.855,41.504,41.992,23.438,38.086,0
1539623881.770,24.414,39.551,40.039,18.066,41.992,0
1539623881.773,21.973,42.969,35.156,11.230,42.480,0
1539623881.777,18.066,45.410,34.668,17.090,54.199,0
1539623881.781,17.090,43.945,32.715,20.020,110.840,0
1539623881.785,18.555,41.992,30.762,5.371,26.855,0
1539623881.789,20.508,41.016,30.762,10.742,19.531,0
1539623881.793,29.297,42.969,33.203,21.973,66.895,0
1539623881.797,35.156,42.480,33.203,26.855,21.973,0
1539623881.801,34.180,40.527,32.715,26.367,77.148,0
1539623881.805,33.691,42.969,36.133,20.508,83.984,0
1539623881.809,40.039,46.875,36.621,28.320,42.969,0
1539623881.813,42.480,41.016,33.203,29.297,-9.766,0
1539623881.816,31.250,37.109,30.273,20.508,23.926,0
1539623881.820,28.320,41.504,30.273,23.438,90.820,0
1539623881.824,33.691,40.039,33.203,23.438,29.785,0
1539623881.828,24.414,37.598,35.645,19.531,-16.602,0
1539623881.832,20.996,39.062,33.691,25.879,-1.465,0
1539623881.836,31.738,41.504,37.598,34.668,-32.227,0
1539623881.840,32.227,41.016,41.504,31.250,-2.930,0
1539623881.844,30.762,39.551,40.039,29.785,48.340,0
1539623881.848,35.645,40.039,40.527,32.227,39.062,0
1539623881.852,27.832,40.039,38.086,33.203,32.227,0
1539623881.855,22.949,41.016,39.062,34.180,22.461,0
1539623881.859,34.668,42.969,37.109,31.250,3.906,0
1539623881.863,32.715,42.480,32.715,23.926,23.438,0
1539623881.867,32.715,40.527,31.738,26.855,83.984,0
1539623881.871,39.062,41.016,29.297,27.832,46.875,0
1539623881.875,41.016,40.527,34.668,28.809,33.691,0
1539623881.879,46.387,41.992,38.086,31.738,71.777,0
1539623881.883,41.504,44.434,37.598,27.344,31.738,0
1539623881.887,31.738,42.480,35.645,22.949,-6.348,0
1539623881.891,34.180,40.039,37.109,27.832,41.504,0
1539623881.895,45.898,39.551,40.039,38.086,67.871,0
1539623881.898,50.781,43.945,38.086,33.691,46.875,0
1539623881.902,36.133,43.945,41.992,22.949,8.789,0
1539623881.906,26.855,41.504,38.574,26.367,84.473,0
1539623881.910,28.809,41.016,37.109,31.250,77.148,0
1539623881.914,32.715,37.598,42.480,31.250,-14.648,0
1539623881.918,26.367,38.574,40.039,23.926,31.250,0
1539623881.922,25.391,39.551,38.574,26.855,41.992,0
1539623881.926,28.320,39.062,40.527,32.715,-3.906,0
1539623881.930,27.832,39.551,40.039,33.203,31.738,0
1539623881.934,27.832,38.574,39.551,34.180,-3.906,0
1539623881.938,24.414,36.621,40.039,33.203,-7.812,0
1539623881.941,27.832,37.109,38.086,32.715,1.465,0
1539623881.945,30.273,40.527,37.598,28.809,-4.395,0
1539623881.949,26.367,39.062,37.598,24.902,26.367,0
1539623881.953,30.273,40.039,36.133,27.832,-6.836,0
1539623881.957,33.203,43.945,36.133,34.180,12.695,0
1539623881.961,35.156,41.016,37.109,35.645,43.945,0
1539623881.965,36.133,37.598,36.621,29.297,-5.859,0
1539623881.969,22.949,38.574,38.086,26.367,-15.625,0
1539623881.973,23.926,40.039,39.062,31.738,16.113,0
1539623881.977,26.367,39.551,35.645,30.762,17.090,0
1539623881.980,23.438,38.574,35.156,31.250,35.156,0
1539623881.984,27.344,39.062,37.598,35.156,38.086,0
1539623881.988,32.227,39.551,39.551,35.156,31.738,0
1539623881.992,31.738,35.645,38.086,32.715,11.719,0
1539623881.996,26.855,32.227,36.621,30.762,5.859,0
1539623882.000,29.785,34.668,37.109,31.250,52.246,0
1539623882.004,36.133,35.156,37.598,26.367,16.113,0
1539623882.008,35.156,36.133,37.598,25.879,4.395,0
1539623882.012,33.691,40.039,36.621,29.785,62.988,0
1539623882.016,35.156,41.992,35.645,29.297,30.762,1
1539623882.020,34.668,41.016,39.062,29.297,77.637,0
1539623882.023,34.668,41.016,39.551,33.203,78.613,0
1539623882.027,29.785,38.086,35.156,31.738,56.152,0
1539623882.031,34.668,39.551,34.668,34.668,63.965,0
1539623882.035,38.574,42.969,36.133,39.062,30.273,0
1539623882.039,30.762,40.039,34.668,38.086,14.648,0
1539623882.043,32.715,38.086,33.691,36.133,8.301,0
1539623882.047,38.574,41.016,35.645,33.691,53.223,0
1539623882.051,35.156,42.969,38.086,33.691,59.082,0
1539623882.055,32.715,41.016,37.109,30.762,-1.465,0
1539623882.059,38.086,40.527,35.156,31.250,0.977,0
1539623882.063,37.598,40.039,36.621,30.762,80.078,0
1539623882.066,35.156,41.992,39.062,29.297,78.613,0
1539623882.070,42.480,44.434,39.551,31.738,54.688,0
1539623882.074,46.875,42.969,41.504,30.273,34.180,0
1539623882.078,43.457,43.945,45.410,33.203,10.254,0
1539623882.082,40.527,47.363,45.898,37.598,13.184,0
1539623882.086,40.527,44.922,41.504,35.156,-15.137,0
1539623882.090,34.668,38.086,37.598,33.691,-1.465,0
1539623882.094,37.109,37.109,40.039,37.598,15.625,0
1539623882.098,44.922,40.039,42.480,38.574,17.090,0
1539623882.102,38.574,38.086,39.551,31.250,40.039,0
1539623882.105,26.855,36.133,37.598,34.180,49.805,0
1539623882.109,29.297,42.969,40.527,35.156,14.160,0
1539623882.113,31.250,44.922,41.504,27.344,-22.461,0
1539623882.117,31.738,42.480,43.457,31.738,-13.184,0
1539623882.121,33.203,43.457,43.945,40.527,-20.508,0
1539623882.125,27.344,40.527,41.504,32.715,3.906,0
1539623882.129,32.715,42.480,38.086,35.645,77.148,0
1539623882.133,37.109,44.922,36.621,42.969,49.805,0
1539623882.137,37.598,45.410,41.504,39.551,41.992,0
1539623882.141,43.945,46.875,42.969,42.480,53.711,0
1539623882.145,38.574,44.922,43.457,37.109,73.242,0
1539623882.148,37.598,42.969,40.039,32.227,54.199,0
1539623882.152,45.898,43.457,41.992,33.691,-34.668,0
1539623882.156,42.480,41.504,41.992,36.621,-4.883,0
1539623882.160,34.180,36.621,38.574,38.574,64.453,0
1539623882.164,34.668,35.645,43.457,38.086,48.340,0
1539623882.168,34.180,37.598,45.410,34.668,24.414,0
1539623882.172,30.273,40.039,44.922,31.738,76.660,0
1539623882.176,29.785,38.086,42.480,26.855,25.391,0
1539623882.180,29.297,39.551,39.062,25.391,-3.906,0
1539623882.184,32.715,37.598,40.039,25.391,59.570,0
1539623882.188,41.504,34.180,41.016,21.484,11.719,0
1539623882.191,37.598,30.762,38.086,26.367,39.551,0
1539623882.195,38.574,32.227,40.039,33.691,83.984,0
1539623882.199,37.598,36.133,41.504,32.227,4.395,0
1539623882.203,40.039,35.156,40.039,30.762,0.488,0
1539623882.207,37.598,31.738,39.062,24.902,73.730,0
1539623882.211,31.738,36.621,37.109,23.926,63.477,0
1539623882.215,37.598,41.016,37.109,29.785,-1.953,0
1539623882.219,40.527,40.039,37.598,33.203,13.672,0
1539623882.223,40.039,39.062,38.574,34.180,34.180,0
1539623882.227,36.133,35.645,40.527,37.598,29.785,0
1539623882.230,42.480,36.133,44.434,41.992,74.707,0
1539623882.234,37.598,34.180,44.434,38.086,83.496,0
1539623882.238,28.809,31.250,41.504,38.086,58.594,0
1539623882.242,30.273,34.180,41.016,42.969,74.219,0
1539623882.246,31.738,35.645,38.086,38.574,54.199,0
1539623882.250,37.109,36.621,37.598,34.668,65.430,0
1539623882.254,28.809,40.039,37.598,28.320,88.867,0
1539623882.258,17.578,39.551,36.133,21.973,-5.371,0
1539623882.262,19.531,39.062,31.738,22.461,25.879,0
1539623882.266,14.648,37.598,30.273,14.648,24.414,0
1539623882.270,14.160,33.203,34.668,9.766,-65.430,0
1539623882.273,13.184,33.203,34.180,8.789,4.883,0
1539623882.277,6.836,33.203,35.645,6.348,51.270,0
1539623882.281,8.301,30.273,36.133,3.418,-3.906,0
1539623882.285,10.742,35.156,34.668,6.836,3.906,0
1539623882.289,5.859,36.133,39.062,12.695,33.203,0
1539623882.293,0.000,29.297,38.574,7.324,40.527,0
1539623882.297,3.906,29.297,36.621,6.348,25.391,0
1539623882.301,9.277,33.691,42.969,17.578,23.926,0
1539623882.305,9.277,34.668,47.363,25.879,40.527,0
1539623882.309,12.207,34.180,42.969,20.996,42.480,0
1539623882.313,14.160,31.250,36.133,20.020,42.969,0
1539623882.316,16.113,28.809,39.551,21.484,81.543,0
1539623882.320,19.043,29.297,46.387,19.531,136.230,0
1539623882.324,23.438,29.785,46.387,18.555,58.105,0
1539623882.328,16.113,25.879,42.969,7.324,18.066,0
1539623882.332,10.254,28.320,39.551,2.930,116.699,0
1539623882.336,12.207,31.250,40.527,10.742,32.715,0
1539623882.340,7.324,26.367,42.969,9.766,-29.785,0
1539623882.344,12.207,25.391,41.016,13.184,13.184,0
1539623882.348,21.973,27.344,42.969,24.414,4.395,0
1539623882.352,22.461,32.227,43.457,19.043,18.066,0
1539623882.355,15.137,34.180,39.551,13.672,-10.254,0
1539623882.359,15.625,30.762,40.527,20.508,20.996,0
1539623882.363,21.484,29.785,38.574,21.973,22.949,0
1539623882.367,15.625,27.832,36.133,20.996,28.809,0
1539623882.371,4.883,25.391,34.180,15.137,41.016,0
1539623882.375,16.602,29.297,35.156,14.648,20.996,0
1539623882.379,23.926,34.668,39.551,17.578,31.250,0
1539623882.383,14.160,31.738,40.527,14.648,4.395,0
1539623882.387,20.020,25.391,39.062,16.602,39.062,0
1539623882.391,25.391,28.320,39.551,20.996,45.410,0
1539623882.395,17.578,35.156,44.434,26.855,28.809,0
1539623882.398,17.578,33.691,46.875,24.414,60.059,0
1539623882.402,17.578,31.250,45.898,16.113,34.668,0
1539623882.406,19.531,35.645,42.969,17.090,-16.113,0
1539623882.410,23.438,37.109,40.527,20.020,-46.875,0
1539623882.414,17.578,33.203,37.598,18.066,-1.953,0
1539623882.418,20.020,34.180,33.691,19.531,26.855,0
1539623882.422,23.926,39.551,36.133,20.996,16.113,0
1539623882.426,24.414,41.992,38.574,18.555,14.160,0
1539623882.430,25.391,39.551,35.645,16.602,61.035,0
1539623882.434,23.438,38.086,35.645,12.695,46.387,0
1539623882.438,21.973,37.109,34.180,14.648,20.020,0
1539623882.441,26.855,38.086,32.227,23.438,17.090,0
1539623882.445,30.762,39.551,36.621,24.414,-25.879,0
1539623882.449,27.344,38.086,43.457,22.949,10.254,0
1539623882.453,27.344,41.016,43.945,27.344,39.551,0
1539623882.457,34.180,44.434,43.945,33.691,51.270,0
1539623882.461,37.598,42.480,43.457,34.668,83.984,0
1539623882.465,34.180,40.039,34.668,27.344,106.445,0
1539623882.469,39.062,41.992,35.156,24.902,69.824,0
1539623882.473,42.969,44.434,41.016,28.809,41.992,0
1539623882.477,32.715,41.992,36.621,27.832,45.410,0
1539623882.480,37.598,42.480,36.133,29.297,20.020,0
1539623882.484,51.758,41.016,36.621,29.785,35.156,0
1539623882.488,45.898,37.598,35.645,28.320,25.879,0
1539623882.492,35.156,40.039,37.109,26.367,1.953,0
1539623882.496,36.621,42.480,34.668,29.297,71.777,0
1539623882.500,38.086,41.992,30.762,29.785,90.820,0
1539623882.504,38.086,45.898,27.832,27.344,49.805,0
1539623882.508,37.598,43.945,29.785,27.832,40.527,0
1539623882.512,35.645,40.039,30.273,29.297,14.160,0
1539623882.516,38.086,41.016,27.344,28.809,-2.441,0
1539623882.520,38.574,41.016,31.250,26.855,-12.695,0
1539623882.523,36.133,41.504,35.156,32.227,17.090,0
1539623882.527,34.180,43.457,34.180,33.691,18.066,0
1539623882.531,34.180,41.504,34.180,27.832,20.020,0
1539623882.535,32.715,39.062,29.785,28.320,26.855,0
1539623882.539,34.180,38.086,24.414,27.832,-14.648,0
1539623882.543,38.086,38.574,26.855,28.809,-8.301,0
1539623882.547,34.668,41.016,27.344,28.320,58.105,0
1539623882.551,31.738,39.062,25.391,28.809,60.547,0
1539623882.555,32.227,38.574,29.297,34.180,28.809,0
1539623882.559,40.527,43.945,33.203,34.180,-8.789,0
1539623882.563,43.945,41.992,31.250,32.715,15.625,0
1539623882.566,42.480,35.156,33.691,40.039,19.531,0
1539623882.570,41.016,38.086,35.645,43.457,-22.461,0
1539623882.574,31.738,38.086,35.645,41.016,99.121,0
1539623882.578,36.133,34.180,36.133,38.574,72.266,0
1539623882.582,36.621,32.715,33.691,33.691,20.508,0
1539623882.586,32.715,33.691,34.180,36.133,70.801,0
1539623882.590,33.203,35.156,39.062,35.156,12.207,0
1539623882.594,33.691,38.574,38.574,33.691,18.555,0
1539623882.598,43.945,40.527,38.086,41.016,18.555,0
1539623882.602,44.434,40.527,36.621,39.551,6.836,0
1539623882.605,43.945,43.945,34.668,34.180,18.066,0
1539623882.609,42.480,40.039,34.180,23.926,0.977,0
1539623882.613,36.133,34.668,36.133,19.043,30.273,0
1539623882.617,43.457,39.062,40.039,32.227,27.832,0
1539623882.621,47.363,36.621,41.504,34.180,41.504,0
1539623882.625,29.785,33.691,39.551,19.043,44.434,0
1539623882.629,20.020,39.062,34.180,15.625,33.203,0
1539623882.633,31.738,39.551,36.621,25.879,58.105,0
1539623882.637,34.180,39.062,40.039,32.227,47.852,0
1539623882.641,24.414,36.621,37.109,28.809,32.715,0
1539623882.645,29.785,36.133,36.133,34.668,26.367,0
1539623882.648,39.551,40.527,39.062,36.621,20.020,0
1539623882.652,33.203,37.109,39.551,21.484,8.301,0
1539623882.656,24.902,30.273,40.527,18.066,21.484,0
1539623882.660,34.668,31.738,40.039,25.879,52.246,0
1539623882.664,38.086,34.180,36.133,28.809,29.297,0
1539623882.668,30.273,36.133,36.621,32.715,36.133,0
1539623882.672,29.297,39.062,36.621,29.297,46.875,0
1539623882.676,31.250,37.109,31.738,23.438,-2.930,0
1539623882.680,28.809,35.645,28.809,21.484,2.441,0
1539623882.684,31.738,34.668,30.762,17.578,27.832,0
1539623882.688,40.039,35.156,33.691,17.578,56.152,0
1539623882.691,36.133,35.645,33.203,19.531,62.988,0
1539623882.695,32.227,39.551,34.668,20.020,43.457,0
1539623882.699,34.668,41.016,37.598,19.531,3.418,0
1539623882.703,36.621,39.062,35.645,21.484,9.277,0
1539623882.707,33.203,37.109,33.203,25.391,33.203,0
1539623882.711,24.902,35.156,32.227,25.879,6.836,0
1539623882.715,23.438,32.227,30.273,20.996,18.066,0
1539623882.719,24.414,30.273,28.809,19.531,33.691,0
1539623882.723,20.996,33.203,28.320,24.414,28.320,0
1539623882.727,20.996,34.180,30.273,21.973,50.293,0
1539623882.730,22.461,31.738,30.762,16.602,70.801,0
1539623882.734,18.555,30.273,35.156,16.602,32.715,0
1539623882.738,14.648,33.691,39.062,18.555,-15.137,0
1539623882.742,12.695,33.691,36.133,13.184,14.160,0
1539623882.746,14.160,31.250,29.785,11.719,51.758,0
1539623882.750,16.602,35.156,29.297,20.020,38.574,0
1539623882.754,17.090,36.621,30.273,20.996,31.738,0
1539623882.758,27.344,33.203,29.297,16.602,58.105,0
1539623882.762,27.344,31.250,29.297,15.137,20.996,0
1539623882.766,22.949,31.738,29.297,18.555,35.156,0
1539623882.770,34.668,30.762,32.715,22.949,83.008,0
1539623882.773,32.227,30.762,30.762,21.973,83.984,0
1539623882.777,25.879,30.273,29.297,15.625,46.387,0
1539623882.781,26.367,32.227,33.691,18.555,28.320,0
1539623882.785,23.926,35.156,31.250,22.949,62.500,0
1539623882.789,24.902,32.227,30.762,27.344,121.582,0
1539623882.793,24.902,35.156,37.598,27.344,47.852,0
1539623882.797,27.344,37.598,37.598,24.414,-52.734,0
1539623882.801,28.320,34.668,34.180,26.367,-7.324,0
1539623882.805,19.043,29.297,29.297,17.090,41.992,0
1539623882.809,15.137,26.367,25.391,8.301,28.320,0
1539623882.813,20.508,26.855,31.250,10.742,22.461,0
1539623882.816,24.414,27.344,31.738,17.578,20.508,0
1539623882.820,15.625,27.832,24.902,15.137,29.297,0
1539623882.824,8.789,27.344,28.320,17.090,51.270,0
1539623882.828,17.090,29.297,37.109,23.926,-33.203,0
1539623882.832,21.973,34.668,38.086,27.832,13.184,0
1539623882.836,20.508,32.715,33.691,21.973,65.430,0
1539623882.840,22.949,24.414,35.645,17.090,-16.602,0
1539623882.844,29.785,23.926,38.574,22.461,9.277,0
1539623882.848,30.273,28.809,39.062,19.043,21.973,0
1539623882.852,25.391,27.832,34.180,18.066,75.195,0
1539623882.855,30.273,32.227,30.762,26.367,125.000,0
1539623882.859,33.691,35.645,32.227,29.785,76.660,0
1539623882.863,30.762,35.645,26.367,23.926,63.477,0
1539623882.867,32.715,35.156,26.367,21.484,65.918,0
1539623882.871,26.855,32.227,30.273,23.438,67.383,0
1539623882.875,23.926,34.180,28.809,28.320,52.246,0
1539623882.879,29.785,33.203,30.762,25.391,-15.137,0
1539623882.883,26.367,30.273,35.645,18.066,9.277,0
1539623882.887,21.484,30.273,39.062,25.391,29.785,0
1539623882.891,24.414,31.738,40.527,30.762,10.742,0
1539623882.895,20.020,32.227,40.527,27.344,26.367,0
1539623882.898,16.602,27.832,36.621,36.133,20.508,0
1539623882.902,21.484,28.809,37.598,36.621,37.109,0
1539623882.906,30.762,33.203,39.551,28.809,0.977,0
1539623882.910,39.551,34.668,35.645,38.574,7.324,0
1539623882.914,33.691,36.133,36.133,38.574,16.113,0
1539623882.918,27.344,37.109,38.086,35.156,2.441,0
1539623882.922,32.715,35.645,36.621,38.086,56.641,0
1539623882.926,32.715,34.180,33.203,34.180,49.316,0
1539623882.930,28.320,33.691,29.785,39.062,44.922,0
1539623882.934,33.691,33.691,34.180,41.504,70.801,0
1539623882.938,41.992,32.227,39.062,33.203,24.902,0
1539623882.941,36.621,26.855,38.086,36.133,34.180,0
1539623882.945,45.410,33.203,32.227,45.410,9.766,0
1539623882.949,41.016,37.598,30.762,34.668,41.504,0
1539623882.953,22.461,34.180,36.621,27.832,66.406,0
1539623882.957,22.461,33.691,32.715,28.320,30.273,0
1539623882.961,23.926,32.715,30.273,25.391,64.453,0
1539623882.965,22.949,30.273,32.715,26.855,48.340,0
1539623882.969,21.484,29.785,30.273,24.414,0.488,0
1539623882.973,31.738,32.715,26.367,27.832,11.719,0
1539623882.977,28.320,33.691,28.809,32.227,49.805,0
1539623882.980,29.297,34.668,35.156,38.574,37.598,0
1539623882.984,36.133,31.250,38.086,36.133,8.301,0
1539623882.988,27.344,27.832,34.180,33.203,20.996,0
1539623882.992,30.762,32.715,32.715,36.621,46.387,0
1539623882.996,28.809,33.203,32.715,37.109,53.223,0
1539623883.000,24.414,31.250,31.250,35.645,22.461,0
1539623883.004,28.320,32.715,34.668,37.109,17.578,0
1539623883.008,35.156,33.691,35.156,36.621,-10.742,0
1539623883.012,40.527,35.156,35.156,33.691,-17.578,0
1539623883.016,36.133,38.574,38.574,38.574,56.152,0
1539623883.020,36.621,37.598,40.527,36.621,62.012,0
1539623883.023,39.062,32.227,38.086,36.133,-48.828,0
1539623883.027,28.809,25.879,38.086,39.062,-40.039,0
1539623883.031,21.484,27.832,41.016,34.668,0.000,0
1539623883.035,27.832,32.227,41.504,35.645,15.625,0
1539623883.039,27.344,30.762,38.574,32.715,69.336,0
1539623883.043,27.344,32.715,35.645,34.180,32.227,0
1539623883.047,34.180,34.668,35.645,40.527,-4.395,0
1539623883.051,24.902,34.180,37.598,34.180,4.883,0
1539623883.055,22.461,33.691,40.039,27.344,29.297,0
1539623883.059,29.785,33.691,39.062,30.273,38.086,0
1539623883.063,26.855,36.133,39.551,32.227,28.320,0
1539623883.066,29.785,41.016,38.086,36.133,44.922,0
1539623883.070,37.598,42.969,39.551,41.016,67.383,0
1539623883.074,35.156,39.551,40.039,35.156,76.660,0
1539623883.078,34.668,39.062,35.645,31.738,89.355,0
1539623883.082,39.551,37.598,34.668,28.809,87.402,0
1539623883.086,40.039,36.621,35.645,24.902,26.367,0
1539623883.090,33.691,33.203,36.133,28.320,43.457,0
1539623883.094,32.715,32.715,37.598,34.180,73.730,0
1539623883.098,39.551,38.574,37.109,34.668,49.805,0
1539623883.102,33.691,36.621,33.203,38.574,36.133,0
1539623883.105,31.738,33.691,33.691,41.504,12.207,0
1539623883.109,36.621,33.203,36.621,36.621,-39.551,0
1539623883.113,33.203,33.203,41.016,37.598,9.766,0
1539623883.117,29.785,33.691,40.039,34.180,29.297,0
1539623883.121,32.715,35.156,40.039,25.391,-30.762,0
1539623883.125,34.668,34.180,40.527,23.438,30.762,0
1539623883.129,40.527,31.250,36.621,29.297,31.738,0
1539623883.133,42.480,30.273,35.645,29.785,-2.930,0
1539623883.137,33.691,32.227,33.691,30.273,11.719,0
1539623883.141,33.203,35.156,36.133,33.691,12.695,0
1539623883.145,35.645,36.133,41.504,30.762,13.672,0
1539623883.148,30.762,32.227,39.062,27.832,15.625,0
1539623883.152,24.902,32.715,33.691,22.949,60.547,0
1539623883.156,27.832,34.668,34.180,30.273,105.469,0
1539623883.160,32.715,34.180,37.598,33.203,54.688,0
1539623883.164,26.855,35.156,38.086,20.996,6.348,0
1539623883.168,27.832,34.180,39.551,25.879,-13.184,0
1539623883.172,29.297,32.227,38.086,31.738,49.316,0
1539623883.176,31.738,34.180,33.203,29.785,85.449,0
1539623883.180,38.086,36.133,27.832,26.855,21.973,0
1539623883.184,29.297,35.156,27.832,22.949,12.695,0
1539623883.188,30.762,41.016,34.180,29.785,5.859,0
1539623883.191,39.551,40.039,35.156,30.273,-27.344,0
1539623883.195,32.227,29.785,30.762,22.949,6.836,0
1539623883.199,29.297,28.809,29.297,24.902,42.969,0
1539623883.203,29.297,33.203,35.156,29.297,14.160,0
1539623883.207,26.367,35.645,40.039,28.320,15.137,0
1539623883.211,26.855,33.691,37.109,28.320,41.016,0
1539623883.215,29.785,34.668,35.645,28.809,44.434,0
1539623883.219,35.645,35.645,37.598,30.273,59.082,0
1539623883.223,32.715,37.109,35.645,29.297,101.074,0
1539623883.227,24.902,39.062,34.180,29.785,79.590,0
1539623883.230,33.691,37.598,33.691,34.668,46.387,0
1539623883.234,41.992,42.480,34.180,35.645,56.152,0
1539623883.238,28.320,44.434,37.598,19.531,104.980,0
1539623883.242,18.555,40.039,36.133,16.602,21.484,0
1539623883.246,30.762,41.992,36.133,29.297,-33.203,0
1539623883.250,27.832,40.527,36.621,20.508,31.738,0
1539623883.254,17.578,41.504,34.180,15.137,19.043,0
1539623883.258,25.879,40.527,37.109,15.625,-23.926,0
1539623883.262,30.762,37.109,38.574,20.020,-25.879,0
1539623883.266,31.250,40.039,39.551,20.508,8.301,0
1539623883.270,23.926,38.574,38.574,11.719,67.871,0
1539623883.273,24.414,36.621,36.133,12.207,58.594,0
1539623883.277,28.809,39.062,36.133,20.020,-6.836,0
1539623883.281,19.531,40.039,36.621,18.555,34.180,0
1539623883.285,17.578,41.992,36.621,16.113,66.895,0
1539623883.289,21.973,43.457,34.668,21.484,34.180,0
1539623883.293,22.461,41.016,35.645,27.832,51.270,0
1539623883.297,24.902,38.086,33.691,30.273,26.855,0
1539623883.301,22.461,37.109,31.250,27.344,12.207,0
1539623883.305,19.531,35.645,33.203,24.414,21.973,0
1539623883.309,24.902,38.086,40.039,27.344,19.043,0
1539623883.313,32.715,36.621,41.504,22.461,-56.152,0
1539623883.316,25.879,34.180,37.598,17.090,-52.734,0
1539623883.320,26.367,35.156,36.133,21.484,2.930,0
1539623883.324,27.832,33.203,32.715,17.090,17.578,0
1539623883.328,21.484,35.156,33.203,10.254,72.266,0
1539623883.332,15.625,33.691,34.180,13.672,51.270,0
1539623883.336,10.742,32.715,32.227,15.137,32.715,0
1539623883.340,12.695,27.832,35.645,7.812,22.461,0
1539623883.344,10.742,25.391,34.668,10.742,19.043,0
1539623883.348,11.719,31.738,33.691,19.043,37.598,0
1539623883.352,16.113,32.227,34.668,21.484,18.555,0
1539623883.355,20.996,31.738,34.668,21.484,51.758,0
1539623883.359,18.555,35.156,33.203,19.531,124.023,0
1539623883.363,17.090,35.645,32.227,21.973,74.219,0
1539623883.367,23.926,32.227,34.180,23.438,12.695,0
1539623883.371,23.438,31.738,37.109,22.949,47.363,0
1539623883.375,18.555,33.691,36.621,24.902,39.062,0
1539623883.379,13.184,33.203,38.086,24.902,-17.090,0
1539623883.383,11.719,33.203,42.480,23.438,-13.672,0
1539623883.387,18.066,34.180,43.945,28.320,25.391,0
1539623883.391,20.508,31.738,39.062,25.391,20.508,0
1539623883.395,18.066,29.785,36.133,18.066,41.504,0
1539623883.398,20.020,30.762,42.480,22.949,91.309,0
1539623883.402,22.461,31.250,44.922,19.531,128.418,0
1539623883.406,22.461,32.715,40.039,11.230,134.766,0
1539623883.410,19.531,32.715,38.574,17.578,77.148,0
1539623883.414,15.137,33.691,37.598,15.625,53.711,1
1539623883.418,18.066,36.621,39.062,15.137,31.738,0
1539623883.422,16.602,40.039,37.109,13.672,50.781,0
1539623883.426,16.602,38.574,36.133,13.672,51.270,0
1539623883.430,19.043,34.180,40.039,21.973,27.832,0
1539623883.434,16.113,31.738,41.992,22.949,34.180,0
1539623883.438,19.531,29.297,40.039,22.461,0.000,0
1539623883.441,24.902,31.738,40.039,27.832,22.949,0
1539623883.445,24.902,35.156,42.969,32.227,27.832,0
1539623883.449,23.438,33.203,39.551,30.273,-3.418,0
1539623883.453,22.461,31.250,34.180,28.809,-7.812,0
1539623883.457,25.879,33.691,31.738,32.715,13.184,0
1539623883.461,27.344,34.180,29.785,31.250,24.902,0
1539623883.465,26.855,33.203,33.691,24.902,11.719,0
1539623883.469,27.344,34.668,36.621,27.344,81.543,0
1539623883.473,29.297,41.504,31.738,24.902,48.828,0
1539623883.477,37.109,42.480,31.250,20.020,9.277,0
1539623883.480,30.762,36.133,35.156,16.113,71.289,0
1539623883.484,25.391,36.621,34.180,13.184,23.438,0
1539623883.488,32.227,37.598,33.203,15.137,13.184,0
1539623883.492,35.645,35.645,35.156,15.137,33.691,0
1539623883.496,33.203,35.156,35.645,20.996,8.789,0
1539623883.500,35.645,36.621,36.621,26.855,27.832,0
1539623883.504,40.039,40.039,36.621,23.438,42.969,0
1539623883.508,41.016,39.062,37.109,25.391,-4.395,0
1539623883.512,35.645,34.668,40.039,28.809,-32.715,0
1539623883.516,28.320,35.156,39.062,33.203,12.695,0
1539623883.520,30.762,35.156,32.715,39.551,-5.371,0
1539623883.523,32.227,36.133,30.762,40.039,-4.883,0
1539623883.527,30.762,37.598,33.691,39.062,47.852,0
1539623883.531,28.320,39.062,34.668,42.969,54.688,0
1539623883.535,25.391,42.480,37.109,45.898,4.395,0
1539623883.539,25.391,41.016,39.062,37.598,27.344,0
1539623883.543,26.367,41.504,40.527,33.691,35.156,0
1539623883.547,30.762,42.969,42.480,41.992,43.945,0
1539623883.551,31.738,44.922,43.945,41.504,35.645,0
1539623883.555,23.926,42.480,45.410,31.738,-46.387,0
1539623883.559,21.973,35.156,42.969,30.273,-14.160,0
1539623883.563,28.809,34.668,41.016,29.785,58.594,0
1539623883.566,31.250,36.621,37.598,25.879,69.824,0
1539623883.570,34.180,37.598,35.645,25.391,46.875,0
1539623883.574,36.621,41.992,35.156,24.414,45.410,0
1539623883.578,30.273,44.434,36.621,26.367,74.707,0
1539623883.582,29.297,41.992,37.109,32.715,21.484,0
1539623883.586,29.785,37.109,36.621,32.227,29.297,0
1539623883.590,20.996,34.668,33.691,29.785,73.730,0
1539623883.594,24.414,34.668,33.203,32.227,57.617,0
1539623883.598,28.809,34.180,36.621,32.227,47.852,0
1539623883.602,27.344,34.180,37.109,27.344,28.809,0
1539623883.605,29.297,34.180,35.645,30.762,61.523,0
1539623883.609,29.297,35.156,33.203,31.738,83.984,0
1539623883.613,33.691,35.156,34.180,28.320,27.832,0
1539623883.617,31.738,34.668,34.668,23.926,5.371,0
1539623883.621,26.367,37.109,34.180,26.367,38.574,0
1539623883.625,25.391,33.203,36.621,32.715,76.660,0
1539623883.629,27.344,30.762,39.062,33.691,31.250,0
1539623883.633,32.227,32.715,39.062,35.156,-43.457,0
1539623883.637,33.203,31.250,37.109,37.109,16.113,0
1539623883.641,29.785,32.227,43.457,30.273,22.949,0
1539623883.645,32.715,33.691,44.922,27.832,-14.648,0
1539623883.648,35.156,33.203,40.039,32.715,-45.410,0
1539623883.652,35.156,36.621,36.133,30.273,-22.949,0
1539623883.656,36.621,41.992,34.668,25.391,53.223,0
1539623883.660,27.344,41.504,30.273,23.926,44.922,0
1539623883.664,30.762,39.062,28.320,27.832,0.000,0
1539623883.668,37.598,38.086,29.297,26.367,18.555,0
1539623883.672,26.855,36.133,29.297,21.484,45.898,0
1539623883.676,24.902,33.691,37.598,24.414,40.527,0
1539623883.680,30.273,31.738,38.086,30.273,80.566,0
1539623883.684,27.832,37.598,32.227,33.691,61.035,0
1539623883.688,22.949,39.062,35.156,26.855,3.906,0
1539623883.691,20.508,33.691,38.574,20.996,15.137,0
1539623883.695,17.578,33.691,38.086,24.902,25.391,0
1539623883.699,21.973,33.691,39.062,24.414,21.484,0
1539623883.703,29.785,34.180,41.016,28.809,32.715,0
1539623883.707,24.902,34.180,40.039,32.227,61.523,0
1539623883.711,25.391,31.250,39.062,28.809,76.172,0
1539623883.715,32.227,33.203,39.062,32.227,69.336,0
1539623883.719,30.273,36.133,43.457,34.180,48.340,0
1539623883.723,34.180,35.645,44.434,30.762,3.906,0
1539623883.727,39.062,37.109,39.551,32.227,10.742,0
1539623883.730,34.668,39.062,40.039,30.762,56.152,0
1539623883.734,26.367,40.039,39.551,24.902,43.457,0
1539623883.738,26.367,41.992,38.574,26.367,20.020,0
1539623883.742,21.484,40.527,43.945,24.902,31.250,0
1539623883.746,11.230,37.598,45.410,19.043,72.754,0
1539623883.750,9.766,40.039,41.504,11.719,56.641,0
1539623883.754,3.906,41.504,39.062,4.883,29.297,0
1539623883.758,6.836,41.992,44.922,12.695,35.645,0
1539623883.762,8.789,42.969,48.828,6.836,-13.184,0
1539623883.766,-4.883,44.434,42.480,-8.301,12.207,0
1539623883.770,-1.953,44.922,42.480,-4.883,27.344,0
1539623883.773,-0.488,45.898,48.828,-5.371,17.578,0
1539623883.777,-16.113,44.922,51.758,-11.719,19.043,0
1539623883.781,-17.578,46.875,46.875,-11.719,51.270,0
1539623883.785,-14.648,48.340,46.875,-11.719,76.660,0
1539623883.789,-17.578,47.363,49.805,-11.719,40.039,0
1539623883.793,-19.043,51.758,45.410,-17.090,-3.906,0
1539623883.797,-23.926,53.223,44.922,-23.926,17.090,0
1539623883.801,-28.320,49.316,43.945,-20.508,30.762,0
1539623883.805,-18.555,49.805,38.086,-11.230,51.270,0
1539623883.809,-15.625,50.293,38.574,-8.301,54.199,0
1539623883.813,-12.695,48.340,40.527,-7.812,42.969,0
1539623883.816,0.977,49.316,41.016,5.371,68.848,0
1539623883.820,8.789,46.387,43.457,8.301,49.805,0
1539623883.824,11.719,43.945,41.992,4.395,71.289,0
1539623883.828,19.531,42.480,41.992,8.789,59.082,0
1539623883.832,22.461,39.551,42.969,12.207,23.438,0
1539623883.836,15.625,40.527,41.504,16.602,30.762,0
1539623883.840,12.207,38.086,41.504,13.184,37.598,0
1539623883.844,16.602,40.039,42.969,15.137,25.879,0
1539623883.848,25.879,45.898,43.945,29.785,22.461,0
1539623883.852,25.879,40.039,41.016,31.738,27.344,0
1539623883.855,25.879,30.762,38.574,34.180,20.996,0
1539623883.859,32.715,31.738,42.969,43.945,23.438,0
1539623883.863,40.039,37.598,43.945,46.875,21.484,0
1539623883.867,43.457,37.109,39.062,41.992,46.387,0
1539623883.871,34.180,31.738,33.203,37.598,49.805,0
1539623883.875,37.109,34.180,33.691,40.527,5.371,0
1539623883.879,49.805,39.062,40.039,47.363,-8.789,0
1539623883.883,47.852,40.039,40.527,46.387,53.223,0
1539623883.887,42.480,40.039,36.621,43.457,32.227,0
1539623883.891,47.852,39.551,33.203,45.410,9.766,0
1539623883.895,51.758,37.109,34.180,47.852,26.855,0
1539623883.898,60.547,37.109,33.203,49.316,62.988,0
1539623883.902,64.453,38.574,30.273,48.828,76.660,0
1539623883.906,51.270,37.109,31.738,45.410,62.500,0
1539623883.910,51.758,38.086,31.250,42.969,58.594,0
1539623883.914,54.199,36.133,28.320,43.945,-9.277,0
1539623883.918,46.875,33.203,28.320,40.039,-20.508,0
1539623883.922,50.293,33.691,31.250,41.016,33.691,0
1539623883.926,59.082,41.992,31.250,44.922,58.105,0
1539623883.930,57.617,44.922,29.785,39.551,63.965,0
1539623883.934,55.176,41.504,28.809,38.086,58.105,0
1539623883.938,55.176,42.480,30.273,43.945,65.430,0
1539623883.941,54.688,43.457,33.691,53.223,79.590,0
1539623883.945,54.199,41.016,36.133,53.223,76.660,0
1539623883.949,51.270,38.086,36.621,53.223,47.363,0
1539623883.953,46.387,38.574,33.691,55.664,52.734,0
1539623883.957,43.457,40.039,33.203,50.293,45.898,0
1539623883.961,41.016,39.062,36.133,42.480,7.324,0
1539623883.965,40.039,38.574,34.180,38.086,12.695,0
1539623883.969,41.016,39.062,34.668,33.203,-4.395,0
1539623883.973,40.527,42.480,37.598,29.785,-10.254,0
1539623883.977,37.109,44.434,33.203,33.203,19.043,0
1539623883.980,36.133,40.527,32.227,34.668,24.414,0
1539623883.984,38.086,38.574,35.156,33.691,81.543,0
1539623883.988,44.434,37.109,37.598,38.574,74.707,0
1539623883.992,48.828,32.227,41.992,40.527,-34.180,0
1539623883.996,43.457,28.320,41.504,41.504,5.371,0
1539623884.000,43.457,31.738,38.574,41.992,46.387,0
1539623884.004,42.969,33.203,41.504,34.668,-6.836,0
1539623884.008,35.645,30.762,43.457,33.203,25.391,0
1539623884.012,29.297,32.715,43.945,34.668,16.113,0
1539623884.016,37.598,36.133,43.457,34.180,48.828,0
1539623884.020,38.086,34.668,39.551,35.156,72.266,0
1539623884.023,20.996,34.668,35.156,31.738,38.574,0
1539623884.027,22.461,35.645,33.691,34.180,63.477,0
1539623884.031,25.879,31.250,37.109,37.598,10.742,0
1539623884.035,20.508,29.297,39.551,31.250,-8.301,0
1539623884.039,16.602,28.320,40.039,26.855,21.973,0
1539623884.043,20.020,29.785,42.480,28.809,48.828,0
1539623884.047,19.531,32.227,41.504,25.879,63.965,0
1539623884.051,21.973,32.715,40.527,21.484,22.949,0
1539623884.055,21.973,32.227,38.086,19.531,33.691,0
1539623884.059,18.066,33.203,37.598,20.996,45.898,0
1539623884.063,21.973,35.645,41.992,19.043,9.766,0
1539623884.066,23.926,32.715,38.574,14.160,23.926,0
1539623884.070,32.227,31.250,33.691,22.949,64.941,0
1539623884.074,26.855,34.668,35.156,26.367,50.781,0
1539623884.078,21.484,35.156,40.527,28.809,73.242,0
1539623884.082,23.438,33.691,43.945,33.203,29.297,0
1539623884.086,19.043,32.715,47.852,31.250,-27.344,0
1539623884.090,21.973,31.250,47.363,29.785,39.062,0
1539623884.094,22.461,31.250,43.457,33.203,1.953,0
1539623884.098,24.414,31.250,42.480,33.203,-30.762,0
1539623884.102,25.879,31.738,39.062,26.367,29.785,0
1539623884.105,25.391,36.621,37.109,22.461,56.641,0
1539623884.109,27.832,39.062,36.621,17.090,38.574,0
1539623884.113,30.273,43.945,35.645,17.090,-15.137,0
1539623884.117,30.762,43.457,38.574,20.996,-1.953,0
1539623884.121,36.621,38.086,42.969,30.762,54.688,0
1539623884.125,39.551,36.133,40.527,26.367,32.227,0
1539623884.129,33.691,36.133,34.668,17.090,-16.602,0
1539623884.133,31.738,39.062,37.598,28.320,5.371,0
1539623884.137,24.414,42.969,39.551,30.273,11.719,0
1539623884.141,20.020,41.992,38.086,23.926,26.855,0
1539623884.145,23.438,41.992,36.133,23.926,71.289,0
1539623884.148,24.414,44.434,38.086,20.020,32.715,0
1539623884.152,25.391,45.410,38.574,17.090,4.395,0
1539623884.156,22.949,42.480,36.621,18.555,39.062,0
1539623884.160,21.973,36.621,39.551,23.438,-9.277,0
1539623884.164,18.066,32.715,41.016,20.020,11.230,0
1539623884.168,16.602,32.227,40.039,21.973,60.547,0
1539623884.172,16.602,31.250,39.062,28.320,29.785,0
1539623884.176,18.555,33.691,37.109,28.809,61.035,0
1539623884.180,28.809,34.668,40.039,31.250,13.672,0
1539623884.184,26.855,33.691,42.969,32.227,-16.113,0
1539623884.188,17.090,33.203,42.480,28.320,24.414,0
1539623884.191,25.391,32.227,38.574,27.832,27.344,0
1539623884.195,27.344,36.133,33.691,24.902,20.996,0
1539623884.199,21.484,41.504,38.574,21.973,1.953,0
1539623884.203,18.555,38.086,38.086,21.484,58.105,0
1539623884.207,11.230,32.227,34.180,23.438,48.828,0
1539623884.211,15.137,32.227,37.109,27.832,-19.531,0
1539623884.215,25.879,34.180,38.086,29.297,47.363,0
1539623884.219,19.043,34.180,37.598,28.320,32.227,0
1539623884.223,12.695,31.738,39.551,26.367,25.879,0
1539623884.227,19.531,34.668,40.039,24.902,59.082,0
1539623884.230,23.926,39.551,38.086,23.926,16.602,0
1539623884.234,22.461,38.574,33.203,20.020,27.832,0
1539623884.238,27.344,41.016,35.645,24.414,39.062,0
1539623884.242,31.250,40.527,41.504,26.367,6.836,0
1539623884.246,21.973,37.109,37.109,20.508,-18.066,0
1539623884.250,25.391,36.621,30.273,20.508,-31.738,0
1539623884.254,30.273,35.156,28.320,19.531,-6.836,0
1539623884.258,24.902,38.086,32.227,20.508,14.648,0
1539623884.262,22.461,35.645,36.133,16.602,28.809,0
1539623884.266,29.297,33.691,35.645,17.090,57.617,0
1539623884.270,23.438,35.156,37.598,22.949,56.641,0
1539623884.273,19.531,35.156,38.574,16.602,20.996,0
1539623884.277,25.391,37.109,32.227,14.160,-31.738,0
1539623884.281,32.227,38.574,29.297,17.578,-8.789,0
1539623884.285,39.062,39.551,33.203,20.020,13.672,0
1539623884.289,32.227,40.039,35.645,20.508,-11.230,0
1539623884.293,25.391,36.621,36.133,15.625,11.719,0
1539623884.297,29.297,34.668,28.320,22.461,51.270,0
1539623884.301,38.086,38.086,20.996,28.320,56.152,0
1539623884.305,32.227,37.109,22.461,22.461,53.711,0
1539623884.309,25.391,37.598,27.832,19.043,61.035,0
1539623884.313,28.320,38.574,32.715,25.391,68.359,0
1539623884.316,34.180,36.133,32.715,29.785,69.824,0
1539623884.320,27.344,32.715,33.691,23.926,45.898,0
1539623884.324,25.391,32.227,34.180,25.879,56.641,0
1539623884.328,32.715,36.621,38.086,32.715,63.965,0
1539623884.332,33.691,39.551,41.504,31.250,24.414,0
1539623884.336,31.250,36.133,41.504,25.879,13.184,0
1539623884.340,23.926,32.227,41.016,23.926,-17.090,0
1539623884.344,26.367,36.133,43.457,20.508,-26.855,0
1539623884.348,27.832,37.598,40.527,11.230,14.648,0
1539623884.352,17.578,31.250,33.203,3.906,11.719,0
1539623884.355,15.625,33.691,34.180,9.766,20.020,0
1539623884.359,17.090,37.598,39.551,16.602,27.832,0
1539623884.363,17.090,35.156,39.551,13.672,5.371,0
1539623884.367,14.160,33.691,38.086,9.277,23.926,0
1539623884.371,12.695,37.109,38.574,8.789,55.664,0
1539623884.375,18.066,37.598,39.551,10.742,39.062,0
1539623884.379,22.461,36.621,40.039,18.066,88.867,0
1539623884.383,15.137,33.691,38.574,18.555,79.590,0
1539623884.387,11.230,33.691,38.574,20.996,2.441,0
1539623884.391,20.996,42.480,40.039,27.344,47.852,0
1539623884.395,26.855,42.969,38.574,23.926,35.645,0
1539623884.398,30.273,40.527,33.691,27.344,18.066,0
1539623884.402,38.086,45.898,30.762,32.227,-20.996,0
1539623884.406,30.273,48.340,35.156,25.391,1.953,0
1539623884.410,27.832,42.969,41.992,17.578,92.773,0
1539623884.414,31.738,41.504,39.551,21.484,26.367,0
1539623884.418,26.855,45.898,34.668,23.926,-7.812,0
1539623884.422,22.461,42.969,36.621,25.879,43.945,0
1539623884.426,24.414,39.062,33.203,28.320,87.891,0
1539623884.430,29.297,38.086,26.855,20.996,141.113,0
1539623884.434,32.715,36.133,29.297,22.949,95.215,0
1539623884.438,22.461,34.668,31.250,23.438,24.414,0
1539623884.441,17.578,35.645,29.785,25.391,35.156,0
1539623884.445,34.668,40.039,36.133,39.551,-0.488,0
1539623884.449,39.062,44.434,38.086,35.156,9.277,0
1539623884.453,32.715,44.434,34.668,28.320,12.207,0
1539623884.457,30.762,39.062,35.645,35.645,15.137,0
1539623884.461,24.414,39.062,37.598,34.180,75.684,0
1539623884.465,29.785,36.621,36.621,31.250,68.359,0
1539623884.469,27.344,32.715,37.598,27.344,44.922,0
1539623884.473,22.461,35.156,40.039,28.320,18.066,0
1539623884.477,32.715,36.133,37.109,32.227,7.812,0
1539623884.480,35.156,38.086,37.109,27.344,49.316,0
1539623884.484,27.832,39.551,37.109,24.414,58.594,0
1539623884.488,20.020,38.574,36.621,29.785,62.012,0
1539623884.492,21.973,39.062,41.016,35.645,-0.977,0
1539623884.496,34.668,37.109,41.504,42.969,-55.664,0
1539623884.500,43.945,36.621,45.410,46.875,-30.273,0
1539623884.504,35.156,37.109,44.922,45.410,21.484,0
1539623884.508,34.180,38.574,41.992,45.410,27.344,0
1539623884.512,40.527,39.551,40.039,44.922,4.883,0
1539623884.516,38.086,40.527,37.598,39.551,65.918,0
1539623884.520,37.598,41.016,37.598,38.086,59.082,0
1539623884.523,38.574,44.922,37.598,42.480,11.230,0
1539623884.527,37.109,45.410,36.621,38.086,59.082,0
1539623884.531,37.598,41.504,37.109,41.016,87.402,0
1539623884.535,41.504,39.062,42.480,40.039,60.059,0
1539623884.539,42.480,40.527,44.434,33.203,55.176,0
1539623884.543,42.969,42.969,41.016,32.715,62.500,0
1539623884.547,42.480,46.387,39.551,32.227,41.016,0
1539623884.551,39.062,48.340,39.062,35.645,26.367,0
1539623884.555,36.621,46.387,37.109,33.203,81.055,0
1539623884.559,35.645,43.945,34.180,25.879,106.445,0
1539623884.563,33.203,41.504,32.715,28.809,55.664,0
1539623884.566,30.273,37.109,35.645,26.855,68.359,0
1539623884.570,32.715,36.621,38.574,24.414,82.520,0
1539623884.574,35.645,41.016,40.039,21.973,43.457,0
1539623884.578,32.227,40.039,38.086,15.137,53.711,0
1539623884.582,29.297,41.992,36.621,14.648,100.098,0
1539623884.586,29.297,44.922,32.715,18.066,93.262,0
1539623884.590,32.227,41.504,30.273,14.648,37.598,0
1539623884.594,33.203,40.527,32.227,18.066,43.945,0
1539623884.598,31.250,41.504,34.180,26.367,62.500,0
1539623884.602,36.621,41.016,35.156,25.879,46.387,0
1539623884.605,30.762,40.039,31.250,22.461,-24.414,0
1539623884.609,19.531,38.086,30.273,22.461,-21.484,0
1539623884.613,23.438,38.086,34.668,25.879,4.883,0
1539623884.617,23.438,38.086,36.133,26.855,4.395,0
1539623884.621,18.066,37.109,38.574,21.484,-2.930,0
1539623884.625,23.438,37.109,43.457,21.973,3.418,0
1539623884.629,29.785,36.133,42.969,30.273,62.988,0
1539623884.633,36.133,34.668,41.992,33.203,40.039,0
1539623884.637,38.574,36.133,36.133,33.203,-12.207,0
1539623884.641,35.645,41.016,31.738,35.156,10.742,0
1539623884.645,31.738,41.504,33.691,31.738,22.949,0
1539623884.648,23.438,36.133,35.645,18.555,39.551,1
1539623884.652,9.766,32.227,39.551,12.695,63.965,0
1539623884.656,6.836,35.156,39.551,17.090,45.898,0
1539623884.660,20.020,39.551,40.039,20.996,50.781,0
1539623884.664,25.879,40.039,42.480,25.391,20.508,0
1539623884.668,24.902,36.621,38.574,27.344,8.301,0
1539623884.672,34.180,37.109,36.621,28.809,5.859,0
1539623884.676,38.574,41.504,38.574,35.156,42.480,0
1539623884.680,35.156,38.574,38.574,34.180,83.496,0
1539623884.684,38.086,37.598,41.504,35.156,48.340,0
1539623884.688,41.504,46.875,43.457,42.480,52.734,0
1539623884.691,46.387,49.805,38.574,41.992,82.031,0
1539623884.695,49.316,46.875,37.598,46.875,66.895,0
1539623884.699,49.316,41.992,38.086,49.316,36.133,0
1539623884.703,44.434,39.062,34.180,40.039,6.836,0
1539623884.707,46.387,42.969,33.691,37.598,-0.977,0
1539623884.711,42.480,41.992,33.203,35.156,16.602,0
1539623884.715,26.855,37.598,33.203,26.367,31.250,0
1539623884.719,33.203,42.480,38.086,23.926,28.320,0
1539623884.723,34.180,43.945,37.109,20.996,0.488,0
1539623884.727,17.090,40.527,32.715,17.578,47.852,0
1539623884.730,18.066,41.504,33.691,18.066,35.156,0
1539623884.734,20.020,40.039,34.668,15.625,21.484,0
1539623884.738,10.254,31.738,36.621,13.672,114.258,0
1539623884.742,10.742,29.785,39.062,16.113,80.566,0
1539623884.746,18.066,33.203,40.039,21.484,32.715,0
1539623884.750,23.926,34.180,38.086,22.461,27.344,0
1539623884.754,25.391,34.180,41.016,20.996,-7.812,0
1539623884.758,27.832,38.086,41.016,28.320,61.523,0
1539623884.762,38.086,40.527,36.133,35.645,70.312,0
1539623884.766,45.410,39.062,37.109,41.016,47.852,0
1539623884.770,40.039,37.598,38.574,41.504,20.020,0
1539623884.773,35.156,37.598,39.551,40.527,-6.836,0
1539623884.777,36.133,35.645,42.480,40.527,52.246,0
1539623884.781,38.086,33.203,42.480,31.250,55.664,0
1539623884.785,41.504,34.180,39.551,29.297,-10.254,0
1539623884.789,45.898,35.645,39.551,32.227,-46.387,0
1539623884.793,42.480,35.156,37.598,29.785,-14.160,0
1539623884.797,39.062,34.668,32.715,33.203,20.020,0
1539623884.801,40.039,35.156,34.180,33.691,7.324,0
1539623884.805,39.551,34.668,34.668,32.227,-14.648,0
1539623884.809,41.016,37.109,33.691,35.156,2.930,0
1539623884.813,41.016,39.062,37.598,33.691,30.273,0
1539623884.816,33.203,37.109,35.156,30.762,29.785,0
1539623884.820,36.621,36.621,30.762,25.391,-6.836,0
1539623884.824,38.574,38.086,35.156,26.855,-15.625,0
1539623884.828,36.621,39.551,37.109,38.574,26.367,0
1539623884.832,43.457,38.086,37.109,41.992,64.941,0
1539623884.836,47.852,37.598,35.645,44.922,86.914,0
1539623884.840,45.410,37.598,31.738,43.945,75.684,0
1539623884.844,46.875,37.109,32.715,42.480,59.570,0
1539623884.848,47.363,37.598,31.250,39.062,60.059,0
1539623884.852,42.969,37.598,29.297,37.598,26.855,0
1539623884.855,50.781,40.039,32.715,46.875,-43.457,0
1539623884.859,51.270,38.086,33.203,38.574,7.812,0
1539623884.863,46.387,35.645,31.738,35.645,83.008,0
1539623884.867,44.434,37.109,29.785,38.086,50.293,0
1539623884.871,36.621,34.668,33.691,35.156,4.883,0
1539623884.875,29.785,31.738,34.668,31.738,7.324,0
1539623884.879,30.273,33.691,34.668,33.691,-18.066,0
1539623884.883,32.715,35.645,38.086,36.621,-22.461,0
1539623884.887,41.016,33.203,38.574,31.250,-7.812,0
1539623884.891,39.062,29.785,37.109,28.320,-26.367,0
1539623884.895,33.203,28.320,34.668,33.203,-18.066,0
1539623884.898,36.621,29.785,35.156,38.574,27.832,0
1539623884.902,40.039,30.273,38.086,29.297,28.809,0
1539623884.906,40.527,29.785,32.715,22.949,-19.531,0
1539623884.910,35.645,36.133,29.785,29.785,21.484,0
1539623884.914,36.621,40.527,33.203,33.203,80.566,0
1539623884.918,41.016,35.156,32.715,33.691,77.637,0
1539623884.922,35.156,29.297,31.250,30.762,64.941,0
1539623884.926,33.203,26.855,32.715,28.320,63.477,0
1539623884.930,39.062,28.809,35.645,33.691,48.340,0
1539623884.934,41.016,31.738,35.645,37.109,43.457,0
1539623884.938,36.621,36.133,35.645,35.645,72.754,0
1539623884.941,38.574,41.016,32.227,41.992,94.238,0
1539623884.945,38.086,39.062,30.762,41.992,78.613,0
1539623884.949,30.762,34.668,32.227,40.527,70.312,0
1539623884.953,32.715,37.109,32.715,41.504,59.570,0
1539623884.957,34.668,38.574,34.180,35.156,-11.719,0
1539623884.961,30.273,35.645,34.180,32.227,-17.090,0
1539623884.965,23.438,31.738,34.180,32.227,44.922,0
1539623884.969,20.508,30.762,34.180,25.879,63.965,0
1539623884.973,30.273,33.203,33.203,26.855,73.242,0
1539623884.977,36.621,38.086,32.715,30.762,8.789,0
1539623884.980,28.320,36.621,34.668,24.902,11.719,0
1539623884.984,28.320,34.180,36.133,26.367,33.203,0
1539623884.988,38.086,34.668,41.016,30.762,-23.438,0
1539623884.992,37.109,32.715,39.551,29.785,36.621,0
1539623884.996,27.344,30.762,35.156,26.367,53.711,0
1539623885.000,21.484,33.203,40.039,24.414,33.691,0
1539623885.004,29.297,35.156,45.410,30.762,59.570,0
1539623885.008,35.156,33.691,47.363,32.715,70.801,0
1539623885.012,21.973,33.691,40.039,27.832,47.363,0
1539623885.016,18.066,32.715,33.203,23.438,57.129,0
1539623885.020,25.879,32.227,37.109,28.320,60.059,0
1539623885.023,23.438,30.762,41.504,36.621,8.789,0
1539623885.027,15.137,26.855,41.992,33.203,57.129,0
1539623885.031,20.996,28.320,46.387,31.250,125.977,0
1539623885.035,26.367,31.738,47.852,33.203,81.543,0
1539623885.039,25.391,32.715,42.969,25.879,-9.766,0
1539623885.043,27.344,33.203,40.039,15.625,-3.906,0
1539623885.047,30.762,36.621,42.969,17.578,43.457,0
1539623885.051,35.645,41.016,47.852,20.996,-4.395,0
1539623885.055,23.926,37.109,41.016,17.578,1.953,0
1539623885.059,19.531,30.273,32.715,15.625,45.410,0
1539623885.063,30.273,31.250,35.645,18.066,75.684,0
1539623885.066,27.832,30.762,40.527,20.020,46.387,0
1539623885.070,20.020,29.785,36.133,20.020,39.062,0
1539623885.074,18.555,32.227,34.180,25.879,54.688,0
1539623885.078,22.461,32.715,39.062,26.367,22.949,0
1539623885.082,24.414,32.227,41.016,19.531,49.805,0
1539623885.086,20.020,32.227,38.086,18.066,96.191,0
1539623885.090,21.973,30.762,37.109,25.879,66.895,0
1539623885.094,26.367,34.180,35.156,28.809,69.336,0
1539623885.098,27.344,38.086,31.250,31.250,59.570,0
1539623885.102,24.414,37.109,32.715,38.574,12.207,0
1539623885.105,19.043,36.621,36.133,36.621,39.551,0
1539623885.109,19.043,35.645,36.621,25.879,36.133,0
1539623885.113,33.203,36.621,34.668,25.391,15.137,0
1539623885.117,36.621,36.133,33.691,20.996,76.172,0
1539623885.121,31.738,35.156,35.156,18.555,87.891,0
1539623885.125,34.668,37.109,36.133,24.902,44.434,0
1539623885.129,36.133,39.062,34.668,25.879,45.410,0
1539623885.133,35.645,37.598,33.203,26.367,91.309,0
1539623885.137,37.109,39.551,34.180,32.227,91.309,0
1539623885.141,41.992,44.922,36.133,31.250,74.219,0
1539623885.145,46.387,42.969,33.203,25.391,72.266,0
1539623885.148,38.574,41.016,29.297,23.438,38.086,0
1539623885.152,36.133,43.457,27.832,27.832,-2.930,0
1539623885.156,42.969,40.039,30.273,28.809,2.930,0
1539623885.160,41.016,38.574,32.227,24.902,22.949,0
1539623885.164,33.203,38.086,32.227,26.367,47.852,0
1539623885.168,36.621,40.527,35.156,33.203,71.777,0
1539623885.172,37.598,40.527,36.621,29.297,8.301,0
1539623885.176,33.691,37.109,37.598,21.973,-37.598,0
1539623885.180,33.691,40.527,39.551,34.668,20.508,0
1539623885.184,30.762,41.992,39.551,32.227,26.367,0
1539623885.188,31.250,39.062,35.156,22.461,-25.391,0
1539623885.191,34.180,37.109,31.738,26.367,-34.668,0
1539623885.195,31.738,35.645,34.180,27.344,25.391,0
1539623885.199,31.250,36.621,36.133,26.855,69.824,0
1539623885.203,35.156,38.574,38.574,32.227,28.320,0
1539623885.207,36.621,38.574,41.504,34.180,18.066,0
1539623885.211,42.969,36.621,42.969,30.273,44.434,0
1539623885.215,44.434,38.086,43.945,30.273,6.836,0
1539623885.219,33.691,40.039,42.480,22.461,-21.484,0
1539623885.223,34.668,41.504,39.062,27.344,15.625,0
1539623885.227,40.039,42.969,40.039,39.551,55.664,0
1539623885.230,45.898,44.922,41.992,34.668,33.203,0
1539623885.234,43.457,44.434,41.504,33.691,-5.371,0
1539623885.238,38.086,41.016,39.551,39.551,-35.645,0
1539623885.242,39.551,40.527,39.551,37.598,46.387,0
1539623885.246,41.016,41.016,38.086,37.598,76.660,0
1539623885.250,34.668,40.039,36.133,36.133,29.785,0
1539623885.254,32.227,39.551,34.180,30.273,82.520,0
1539623885.258,36.621,42.480,36.621,30.273,56.641,0
1539623885.262,38.574,41.016,44.434,28.320,-30.273,0
1539623885.266,35.645,41.992,39.551,28.809,56.641,0
1539623885.270,38.086,46.875,35.156,37.109,65.918,0
1539623885.273,41.504,47.363,40.527,31.738,-8.301,0
1539623885.277,39.062,47.363,40.527,23.438,44.434,0
1539623885.281,34.668,43.945,39.062,27.344,26.367,0
1539623885.285,35.645,41.016,39.062,32.227,-22.461,0
1539623885.289,43.457,39.551,38.086,33.691,-34.668,0
1539623885.293,40.527,37.109,39.062,31.738,12.695,0
1539623885.297,33.203,34.668,41.992,31.250,19.531,0
1539623885.301,40.039,36.621,41.016,33.691,33.203,0
1539623885.305,45.898,38.574,39.551,35.645,50.293,0
1539623885.309,40.527,39.551,41.992,34.180,15.137,0
1539623885.313,36.133,41.504,42.480,29.785,22.949,0
1539623885.316,32.715,40.527,46.387,23.438,24.902,0
1539623885.320,31.250,38.574,46.875,16.113,5.371,0
1539623885.324,32.227,37.598,41.504,17.090,47.852,0
1539623885.328,27.832,33.203,36.621,21.973,85.938,0
1539623885.332,28.320,34.180,33.691,20.020,120.605,0
1539623885.336,35.156,37.109,37.598,21.484,54.199,0
1539623885.340,31.738,37.598,40.527,21.973,66.406,0
1539623885.344,24.414,41.992,40.039,20.996,87.402,0
1539623885.348,31.738,43.457,41.504,25.391,-2.441,0
1539623885.352,38.574,41.504,41.504,30.762,-34.180,0
1539623885.355,41.992,41.504,38.574,30.762,-25.391,0
1539623885.359,49.316,44.434,37.598,33.203,2.441,0
1539623885.363,47.852,48.828,34.180,32.715,55.176,0
1539623885.367,44.922,48.828,35.645,30.273,-2.441,0
1539623885.371,41.504,41.016,37.109,29.297,-2.441,0
1539623885.375,37.598,40.039,36.621,33.203,50.781,0
1539623885.379,37.109,41.992,37.598,42.480,40.527,0
1539623885.383,41.016,40.527,38.086,39.551,66.406,0
1539623885.387,47.852,43.457,39.551,33.203,41.016,0
1539623885.391,58.594,46.387,41.016,39.062,28.809,0
1539623885.395,51.270,47.363,41.504,35.156,-12.207,0
1539623885.398,38.086,46.387,39.551,27.344,-17.578,0
1539623885.402,47.852,48.340,35.156,30.762,40.039,0
1539623885.406,47.363,50.781,37.598,33.691,26.855,0
1539623885.410,40.527,49.805,39.062,31.738,-17.578,0
1539623885.414,34.668,45.410,38.086,30.273,22.461,0
1539623885.418,32.715,41.016,39.062,28.809,34.668,0
1539623885.422,37.598,40.039,42.969,26.855,16.602,0
1539623885.426,34.668,41.504,48.828,26.855,33.691,0
1539623885.430,34.180,43.945,48.340,27.832,73.242,0
1539623885.434,36.133,45.410,45.898,30.762,47.363,0
1539623885.438,41.992,42.480,43.457,35.645,7.324,0
1539623885.441,36.621,41.992,40.527,38.574,7.812,0
1539623885.445,35.645,40.039,39.551,37.109,12.695,0
1539623885.449,47.363,42.969,39.062,38.086,8.301,0
1539623885.453,41.016,45.898,37.598,35.156,18.066,0
1539623885.457,37.598,42.480,36.621,31.250,52.734,0
1539623885.461,43.457,39.062,34.668,32.227,12.695,0
1539623885.465,38.086,40.527,29.785,32.227,-5.859,0
1539623885.469,33.203,44.434,29.297,28.320,33.203,0
1539623885.473,39.062,43.457,35.645,30.273,63.965,0
1539623885.477,37.109,41.016,37.109,35.645,87.402,0
1539623885.480,38.086,39.062,37.109,37.109,4.395,0
1539623885.484,48.340,38.086,37.598,36.133,7.324,0
1539623885.488,45.410,38.574,37.598,29.785,102.051,0
1539623885.492,41.016,39.062,37.109,25.879,59.082,0
1539623885.496,38.086,37.598,37.109,29.785,-0.977,0
1539623885.500,32.227,34.180,37.598,29.785,54.688,0
1539623885.504,33.203,33.691,37.109,26.367,65.918,0
1539623885.508,26.855,35.156,33.203,20.020,-2.930,0
1539623885.512,27.344,37.598,30.762,20.020,12.695,0
1539623885.516,38.574,44.922,37.109,30.273,24.414,0
1539623885.520,38.086,41.016,41.992,25.879,-25.879,0
1539623885.523,40.039,36.133,37.598,23.926,-4.883,0
1539623885.527,37.109,39.062,33.203,32.715,16.113,0
1539623885.531,34.668,37.109,34.180,34.180,29.297,0
1539623885.535,41.992,37.109,33.203,34.668,29.785,0
1539623885.539,47.363,37.598,34.180,37.598,38.574,0
1539623885.543,41.504,40.039,35.645,35.156,31.738,0
1539623885.547,26.855,38.086,36.133,29.785,46.387,0
1539623885.551,29.297,37.598,37.598,33.203,72.754,0
1539623885.555,35.156,38.574,33.203,36.621,31.250,0
1539623885.559,44.434,38.574,35.645,31.738,-23.438,0
1539623885.563,38.086,39.062,39.062,22.461,-26.367,0
1539623885.566,23.926,39.551,35.156,20.508,-9.277,0
1539623885.570,25.391,40.527,33.203,22.461,-0.488,0
1539623885.574,24.414,34.180,35.156,19.043,15.137,0
1539623885.578,20.020,33.691,36.621,18.066,38.574,0
1539623885.582,28.320,39.062,34.668,21.484,39.062,0
1539623885.586,30.762,40.527,36.133,21.973,-23.926,0
1539623885.590,26.367,40.527,40.039,19.043,-34.668,0
1539623885.594,31.738,39.062,38.574,25.879,23.926,0
1539623885.598,32.227,38.574,37.598,32.227,2.441,0
1539623885.602,21.484,35.156,37.109,27.832,-2.930,0
1539623885.605,33.691,35.156,38.086,28.809,33.691,0
1539623885.609,39.551,41.016,37.109,29.785,50.781,0
1539623885.613,22.949,41.504,38.086,30.273,82.031,0
1539623885.617,24.902,40.527,37.109,31.738,63.477,0
1539623885.621,39.551,42.480,36.133,34.180,94.727,0
1539623885.625,36.133,40.527,38.574,33.203,79.590,0
1539623885.629,30.762,41.016,29.785,29.785,42.480,0
1539623885.633,38.086,40.527,27.344,28.809,30.273,0
1539623885.637,35.156,33.203,32.227,27.832,6.836,0
1539623885.641,35.156,37.598,31.738,20.508,33.203,0
1539623885.645,33.691,41.016,27.832,20.508,37.598,0
1539623885.648,34.180,38.574,26.367,29.297,23.926,0
1539623885.652,36.621,41.504,30.273,26.367,39.551,0
1539623885.656,34.668,41.504,32.227,22.949,72.754,0
1539623885.660,38.574,41.992,34.180,26.855,48.340,0
1539623885.664,33.691,42.969,35.156,27.344,63.965,0
1539623885.668,19.043,41.016,31.738,24.902,80.078,0
1539623885.672,19.531,39.062,31.250,25.391,62.500,0
1539623885.676,29.297,37.598,34.180,25.391,87.891,0
1539623885.680,30.273,38.086,34.668,22.949,86.914,0
1539623885.684,28.809,40.039,29.785,26.367,28.809,0
1539623885.688,31.250,39.062,30.273,31.738,0.977,0
1539623885.691,25.879,38.086,31.738,33.203,12.207,0
1539623885.695,21.973,39.551,30.273,33.203,66.895,0
1539623885.699,20.996,38.574,31.738,29.297,48.828,0
1539623885.703,16.602,33.691,32.715,24.902,8.789,0
1539623885.707,20.508,37.598,34.180,23.926,-17.090,0
1539623885.711,20.996,38.086,36.133,23.438,-32.715,0
1539623885.715,17.578,32.715,35.645,28.809,-6.348,0
1539623885.719,20.996,36.133,33.691,27.344,47.363,0
1539623885.723,30.273,36.133,34.180,24.902,48.828,0
1539623885.727,23.926,32.715,35.645,25.879,18.555,0
1539623885.730,13.184,32.227,31.250,22.949,57.129,0
1539623885.734,18.066,35.156,26.367,24.414,4.395,0
1539623885.738,15.137,35.156,28.809,20.996,-32.715,0
1539623885.742,17.090,32.715,27.344,17.578,30.273,0
1539623885.746,20.508,30.762,28.320,18.066,30.762,0
1539623885.750,19.043,32.715,35.156,16.113,-34.180,0
1539623885.754,33.203,38.086,34.668,24.414,-12.207,0
1539623885.758,29.785,34.668,28.320,25.879,88.867,0
1539623885.762,20.020,32.227,25.391,22.949,75.195,0
1539623885.766,30.273,37.109,29.785,26.367,48.828,0
1539623885.770,24.902,38.086,30.273,28.320,37.598,0
1539623885.773,16.602,34.668,30.273,27.832,5.859,0
1539623885.777,17.090,34.180,30.762,23.438,-18.066,0
1539623885.781,20.996,35.645,27.832,18.066,21.973,0
1539623885.785,25.879,36.133,31.250,17.090,27.344,0
1539623885.789,27.832,37.598,32.227,18.066,-34.668,0
1539623885.793,22.949,36.621,31.250,15.625,-9.277,0
1539623885.797,26.367,40.039,34.668,20.996,40.527,0
1539623885.801,36.621,45.410,40.527,25.391,43.945,0
1539623885.805,28.809,40.039,41.504,15.625,29.297,0
1539623885.809,22.461,37.109,36.133,13.672,15.137,0
1539623885.813,28.320,40.527,34.668,13.184,-10.742,0
1539623885.816,27.832,37.598,37.109,13.184,-20.996,0
1539623885.820,23.926,35.645,41.992,13.184,18.555,0
1539623885.824,30.762,39.551,43.457,11.230,38.574,0
1539623885.828,36.621,41.016,38.086,21.484,-14.160,0
1539623885.832,41.016,37.598,32.715,26.367,-34.180,0
1539623885.836,38.086,39.062,33.691,25.879,-16.602,0
1539623885.840,28.809,40.039,33.691,26.367,-10.254,0
1539623885.844,29.297,41.016,39.062,21.484,5.371,0
1539623885.848,29.785,40.527,47.852,20.020,64.941,0
1539623885.852,25.879,38.086,44.434,24.414,67.871,0
1539623885.855,26.855,39.551,40.039,23.438,42.969,0
1539623885.859,33.691,45.410,40.527,24.414,60.059,0
1539623885.863,34.180,47.852,44.434,26.855,77.637,0
1539623885.867,31.250,41.992,43.945,28.320,64.453,0
1539623885.871,32.227,40.039,34.668,34.180,26.367,0
1539623885.875,31.738,38.574,35.156,31.738,54.199,0
1539623885.879,41.504,38.086,41.016,27.832,47.852,0
1539623885.883,45.898,37.598,41.016,32.227,-6.348,0
1539623885.887,44.922,37.598,38.574,32.715,-0.488,0
1539623885.891,42.480,39.551,38.086,26.367,41.016,0
1539623885.895,38.574,39.551,39.551,22.949,72.266,0
1539623885.898,39.551,38.086,41.016,30.273,58.594,0
1539623885.902,42.480,40.039,38.086,36.133,95.215,0
1539623885.906,45.410,43.457,39.551,31.738,118.164,0
1539623885.910,37.598,41.992,40.039,23.438,91.309,0
1539623885.914,30.273,41.016,36.133,27.832,20.020,0
1539623885.918,38.574,42.480,41.016,38.086,32.715,0
1539623885.922,41.504,38.086,44.434,38.086,27.344,0
1539623885.926,40.527,38.574,37.598,39.062,25.391,0
1539623885.930,37.598,40.527,37.109,37.598,27.832,0
1539623885.934,27.832,35.645,44.434,32.227,7.812,0
1539623885.938,32.715,36.133,46.387,33.203,15.625,0
1539623885.941,31.250,38.086,42.480,31.738,46.875,0
1539623885.945,29.297,39.551,40.527,34.180,72.754,0
1539623885.949,34.180,38.086,43.457,37.598,59.570,0
1539623885.953,38.086,36.133,46.875,36.133,65.918,0
1539623885.957,36.133,36.133,46.387,35.645,28.320,0
1539623885.961,38.086,33.691,42.480,29.785,-7.812,0
1539623885.965,35.156,35.156,38.574,28.320,74.219,0
1539623885.969,34.180,35.156,40.039,35.156,66.895,0
1539623885.973,33.203,35.156,39.551,36.133,-4.395,0
1539623885.977,33.203,39.062,36.621,32.227,-7.812,0
1539623885.980,38.574,41.016,39.551,28.809,-5.371,0
1539623885.984,36.133,41.992,40.039,27.832,57.617,0
1539623885.988,33.691,41.992,39.062,27.344,67.871,0
1539623885.992,36.621,42.969,42.480,33.691,51.270,0
1539623885.996,42.969,41.016,44.922,41.016,37.109,0
1539623886.000,34.668,36.133,43.945,32.227,0.000,1
1539623886.004,21.973,33.691,41.016,25.391,-16.602,0
1539623886.008,24.902,32.715,43.457,30.762,37.109,0
1539623886.012,36.133,33.203,46.875,37.598,67.383,0
1539623886.016,41.016,34.668,49.316,35.645,22.949,0
1539623886.020,41.504,35.156,48.340,35.156,61.523,0
1539623886.023,42.480,38.574,43.945,40.527,140.137,0
1539623886.027,40.527,38.574,46.875,35.645,92.773,0
1539623886.031,32.227,37.598,43.945,35.645,30.273,0
1539623886.035,28.809,40.039,35.645,41.992,60.547,0
1539623886.039,30.762,42.480,38.574,40.039,67.383,0
1539623886.043,36.621,43.945,38.574,40.527,62.988,0
1539623886.047,44.922,43.945,34.668,36.621,0.977,0
1539623886.051,37.109,43.457,39.062,29.785,-20.996,0
1539623886.055,32.227,39.062,41.504,30.273,38.574,0
1539623886.059,35.156,35.156,38.086,33.203,37.598,0
1539623886.063,38.574,36.621,33.203,34.668,36.133,0
1539623886.066,41.992,40.039,32.715,34.668,44.434,0
1539623886.070,42.969,42.969,38.574,31.250,51.270,0
1539623886.074,39.551,42.480,38.574,22.949,5.371,0
1539623886.078,29.785,37.598,37.109,19.531,-30.273,0
1539623886.082,26.855,39.062,37.598,20.508,-14.648,0
1539623886.086,31.738,41.504,37.109,18.066,34.668,0
1539623886.090,36.133,39.551,40.527,17.578,102.051,0
1539623886.094,35.645,40.527,45.410,22.949,89.844,0
1539623886.098,37.109,42.480,46.875,28.320,51.270,0
1539623886.102,41.504,41.016,41.992,29.785,5.371,0
1539623886.105,35.156,36.621,33.203,24.902,55.176,0
1539623886.109,34.668,38.574,27.832,21.484,32.715,0
1539623886.113,42.480,42.480,28.320,25.391,10.254,0
1539623886.117,39.551,38.086,31.250,30.273,41.504,0
1539623886.121,32.227,36.133,33.691,31.738,12.695,0
1539623886.125,30.273,34.668,33.203,30.762,44.922,0
1539623886.129,27.832,34.180,31.738,27.832,99.609,0
1539623886.133,33.203,38.574,35.156,24.414,49.316,0
1539623886.137,31.250,34.668,38.574,20.508,-36.621,0
1539623886.141,26.855,33.691,38.574,21.973,2.930,0
1539623886.145,31.738,37.109,38.086,25.879,50.781,0
1539623886.148,33.691,38.574,36.621,23.926,97.168,0
1539623886.152,27.832,38.086,35.156,20.996,57.617,0
1539623886.156,26.855,37.109,34.668,18.066,0.488,0
1539623886.160,40.527,38.086,33.203,21.973,31.250,0
1539623886.164,36.133,34.180,32.715,19.531,3.906,0
1539623886.168,20.508,33.691,27.832,16.113,43.945,0
1539623886.172,23.438,37.598,27.344,21.484,20.508,0
1539623886.176,31.250,38.574,31.738,19.531,42.969,0
1539623886.180,22.949,36.133,34.180,12.695,28.320,0
1539623886.184,21.484,34.668,33.203,16.113,-19.531,0
1539623886.188,25.879,35.645,36.133,24.414,3.906,0
1539623886.191,22.461,36.621,39.551,22.461,0.977,0
1539623886.195,13.672,35.645,39.551,18.555,21.973,0
1539623886.199,11.719,30.273,37.598,23.926,68.359,0
1539623886.203,19.531,31.250,36.133,26.367,72.754,0
1539623886.207,21.973,35.156,34.180,22.949,37.598,0
1539623886.211,23.438,35.645,33.691,23.438,2.930,0
1539623886.215,21.484,38.086,33.691,20.996,42.969,0
1539623886.219,29.785,39.551,34.668,25.391,68.848,0
1539623886.223,38.086,37.109,35.156,28.320,28.809,0
1539623886.227,25.879,34.668,36.621,26.855,31.738,0
1539623886.230,18.555,34.668,39.062,34.668,32.715,0
1539623886.234,26.855,36.133,37.109,41.016,50.781,0
1539623886.238,33.203,38.086,36.133,33.203,27.344,0
1539623886.242,27.344,39.062,37.598,29.297,-8.789,0
1539623886.246,24.414,35.645,36.621,29.785,25.391,0
1539623886.250,25.879,33.691,33.691,27.832,27.344,0
1539623886.254,28.320,35.645,33.691,29.785,69.336,0
1539623886.258,27.344,38.574,33.691,25.391,56.641,0
1539623886.262,21.484,36.133,36.621,21.973,50.293,0
1539623886.266,15.625,32.227,38.086,18.066,65.918,0
1539623886.270,23.926,33.691,38.086,19.043,50.781,0
1539623886.273,28.320,32.227,36.621,23.438,61.523,0
1539623886.277,33.203,35.156,36.133,29.297,-13.672,0
1539623886.281,30.273,36.133,37.598,28.809,13.184,0
1539623886.285,23.438,34.180,38.574,20.996,48.340,0
1539623886.289,33.203,38.574,37.598,26.855,48.828,0
1539623886.293,41.016,41.992,35.156,33.203,15.625,0
1539623886.297,36.621,40.527,39.062,32.715,-13.672,0
1539623886.301,32.227,38.086,42.969,34.668,26.855,0
1539623886.305,31.738,35.156,40.039,35.156,41.992,0
1539623886.309,37.598,38.086,34.180,35.645,45.410,0
1539623886.313,32.227,41.992,36.133,30.762,3.906,0
1539623886.316,16.602,38.086,36.133,26.367,0.977,0
1539623886.320,20.020,34.180,36.621,27.832,36.133,0
1539623886.324,21.973,35.156,40.039,28.320,3.418,0
1539623886.328,18.555,35.645,36.133,28.320,-25.879,0
1539623886.332,20.996,34.668,31.738,18.066,34.180,0
1539623886.336,17.578,36.621,32.227,13.672,44.434,0
1539623886.340,19.531,40.039,33.203,20.020,-10.742,0
1539623886.344,21.973,39.062,35.156,16.602,7.812,0
1539623886.348,21.484,39.551,38.086,23.438,43.945,0
1539623886.352,21.484,43.945,41.504,28.320,22.949,0
1539623886.355,24.414,45.410,42.480,26.855,39.551,0
1539623886.359,25.879,42.969,39.062,22.461,14.160,0
1539623886.363,27.344,39.062,38.086,21.484,25.879,0
1539623886.367,30.762,37.109,42.480,26.855,31.738,0
1539623886.371,20.020,36.133,39.062,21.484,32.227,0
1539623886.375,18.066,35.156,35.156,19.531,96.680,0
1539623886.379,22.949,37.598,40.039,22.949,101.074,0
1539623886.383,21.973,40.527,41.504,26.855,58.105,0
1539623886.387,22.461,37.598,38.574,24.902,25.879,0
1539623886.391,28.809,38.086,38.574,27.832,43.945,0
1539623886.395,28.320,41.504,40.039,32.227,15.625,0
1539623886.398,24.902,41.992,41.992,28.320,-50.293,0
1539623886.402,26.855,41.992,41.992,24.902,22.461,0
1539623886.406,29.785,38.086,40.039,25.391,24.902,0
1539623886.410,29.297,36.621,40.039,26.855,-0.488,0
1539623886.414,29.297,39.551,38.574,29.297,20.508,0
1539623886.418,30.273,41.992,37.109,28.809,-1.465,0
1539623886.422,29.297,41.992,34.180,24.902,12.207,0
1539623886.426,35.156,41.016,32.715,31.738,-2.441,0
1539623886.430,42.480,42.480,36.621,36.621,-1.953,0
1539623886.434,40.527,46.387,37.598,39.062,30.762,0
1539623886.438,35.645,47.852,36.621,42.480,42.969,0
1539623886.441,36.133,45.410,40.527,41.504,11.719,0
1539623886.445,36.133,38.574,43.457,40.527,15.625,0
1539623886.449,41.016,36.621,43.457,39.551,25.879,0
1539623886.453,42.480,38.574,41.016,39.551,39.062,0
1539623886.457,33.203,36.133,38.086,35.645,78.125,0
1539623886.461,39.062,35.156,38.086,36.133,47.852,0
1539623886.465,37.598,35.645,41.504,30.762,-25.391,0
1539623886.469,29.785,34.668,46.387,26.855,13.184,0
1539623886.473,43.457,38.574,43.457,32.715,61.035,0
1539623886.477,48.340,43.945,40.039,32.715,66.406,0
1539623886.480,41.992,40.527,40.527,29.297,81.543,0
1539623886.484,42.480,38.574,38.574,38.086,78.613,0
1539623886.488,44.434,43.945,40.527,46.387,43.457,0
1539623886.492,43.457,42.969,42.480,38.086,19.043,0
1539623886.496,39.551,37.109,42.969,27.344,52.246,0
1539623886.500,39.062,39.062,45.410,28.320,64.453,0
1539623886.504,34.180,41.992,48.340,32.227,0.977,0
1539623886.508,31.738,40.039,49.805,32.227,11.719,0
1539623886.512,31.738,41.504,41.504,35.645,8.789,0
1539623886.516,34.668,41.992,34.668,32.715,30.762,0
1539623886.520,41.504,39.062,34.180,28.320,91.309,0
1539623886.523,35.645,40.039,29.785,25.391,89.355,0
1539623886.527,39.062,37.598,34.180,28.320,60.547,0
1539623886.531,47.852,36.133,40.039,31.250,3.906,0
1539623886.535,41.504,38.086,38.574,23.926,26.855,0
1539623886.539,39.551,39.062,39.062,26.367,23.926,0
1539623886.543,44.922,40.527,39.062,32.227,-32.227,0
1539623886.547,33.691,39.551,34.180,25.391,35.156,0
1539623886.551,24.414,36.621,36.133,27.344,39.551,0
1539623886.555,30.273,34.180,37.598,29.297,41.504,0
1539623886.559,22.949,33.691,35.156,22.949,27.344,0
1539623886.563,21.484,37.109,40.039,23.438,8.301,0
1539623886.566,28.809,42.480,43.457,18.555,62.500,0
1539623886.570,16.602,38.086,41.504,9.277,81.055,0
1539623886.574,17.090,32.227,36.621,12.207,59.570,0
1539623886.578,26.367,34.180,32.227,20.020,10.254,0
1539623886.582,18.555,36.133,31.250,16.113,-12.207,0
1539623886.586,15.625,38.574,31.738,13.672,-15.625,0
1539623886.590,20.996,40.039,34.180,16.602,33.691,0
1539623886.594,27.832,40.039,38.574,18.555,63.477,0
1539623886.598,32.715,39.062,38.086,15.137,41.504,0
1539623886.602,30.762,34.668,33.691,13.184,-16.602,0
1539623886.605,33.203,32.715,34.180,16.602,-4.883,0
1539623886.609,37.109,35.156,37.109,18.066,33.691,0
1539623886.613,39.551,38.574,36.621,20.996,84.961,0
1539623886.617,41.016,39.062,41.016,27.832,92.773,0
1539623886.621,30.762,32.227,42.480,25.879,56.152,0
1539623886.625,21.484,28.320,36.621,23.438,84.961,0
1539623886.629,26.367,32.715,37.109,25.391,64.453,0
1539623886.633,26.855,30.762,37.598,24.414,40.039,0
1539623886.637,23.926,30.762,34.668,20.020,50.293,0
1539623886.641,23.438,32.715,38.086,18.066,41.504,0
1539623886.645,17.578,29.297,40.527,14.648,38.086,0
1539623886.648,13.672,30.762,33.691,11.719,39.551,0
1539623886.652,20.020,34.180,31.250,16.113,15.137,0
1539623886.656,25.879,34.180,34.180,22.949,40.527,0
1539623886.660,25.391,35.645,33.691,26.367,56.152,0
1539623886.664,22.461,32.715,31.738,24.414,48.828,0
1539623886.668,20.996,26.855,35.156,18.066,55.664,0
1539623886.672,22.461,30.762,37.109,15.625,53.223,0
1539623886.676,23.438,38.574,37.109,21.484,23.926,0
1539623886.680,26.855,41.504,38.574,24.414,-8.301,0
1539623886.684,32.227,38.086,36.133,19.043,13.672,0
1539623886.688,34.668,37.109,35.156,15.625,0.977,0
1539623886.691,33.203,37.598,34.668,17.578,-17.578,0
1539623886.695,33.203,36.621,36.621,20.020,12.207,0
1539623886.699,30.273,37.598,36.621,24.414,50.781,0
1539623886.703,32.227,39.062,39.551,32.715,42.480,0
1539623886.707,30.273,35.156,43.945,32.227,33.203,0
1539623886.711,27.832,30.762,43.457,33.691,40.527,0
1539623886.715,35.645,33.691,44.922,37.109,-10.742,0
1539623886.719,34.180,33.691,45.410,31.250,-6.836,0
1539623886.723,27.344,29.297,44.434,30.273,22.949,0
1539623886.727,30.273,32.227,41.992,35.156,14.160,0
1539623886.730,33.691,40.039,40.527,36.133,-6.836,0
1539623886.734,32.227,39.551,37.109,36.621,-30.762,0
1539623886.738,27.344,34.668,34.180,33.203,56.152,0
1539623886.742,33.691,36.621,32.227,37.598,127.441,0
1539623886.746,36.133,39.062,31.738,41.504,102.539,0
1539623886.750,32.715,40.527,33.691,40.039,50.293,0
1539623886.754,38.574,43.945,34.180,43.457,29.297,0
1539623886.758,41.992,47.363,33.691,41.016,16.113,0
1539623886.762,36.621,43.945,29.785,29.297,-9.277,0
1539623886.766,34.668,40.039,31.250,25.391,69.336,0
1539623886.770,41.016,42.480,33.691,29.785,111.328,0
1539623886.773,42.480,43.945,31.250,29.785,74.219,0
1539623886.777,35.645,42.969,34.180,21.973,97.168,0
1539623886.781,34.668,41.016,38.086,24.414,87.402,0
1539623886.785,38.574,37.109,36.621,33.203,60.547,0
1539623886.789,39.062,34.668,29.785,36.621,60.059,0
1539623886.793,40.527,36.133,30.273,35.156,9.766,0
1539623886.797,36.621,40.039,31.738,35.156,1.953,0
1539623886.801,39.551,41.504,30.273,35.645,-7.812,0
