timestamps,TP9,AF7,AF8,TP10,Right AUX,Marker0
1539623627.391,22.461,35.156,40.039,18.066,76.172,0
1539623627.395,30.273,32.227,39.062,20.508,80.078,0
1539623627.398,27.832,37.109,38.086,25.879,94.238,0
1539623627.402,21.973,39.551,37.598,30.762,41.016,0
1539623627.406,16.113,38.574,36.133,28.320,21.484,0
1539623627.410,17.578,41.016,41.016,32.227,29.785,0
1539623627.414,30.273,42.480,37.109,30.273,25.879,0
1539623627.418,28.320,40.039,28.809,23.926,24.414,0
1539623627.422,24.902,41.016,33.203,21.484,-26.367,0
1539623627.426,25.879,38.574,39.551,15.137,-35.645,0
1539623627.430,26.367,36.621,41.504,12.207,68.359,0
1539623627.434,31.250,39.062,36.621,17.578,43.457,0
1539623627.438,27.344,34.668,35.156,26.367,-18.555,0
1539623627.441,21.973,33.691,37.598,26.367,57.617,0
1539623627.445,25.391,40.039,39.062,27.832,44.434,0
1539623627.449,26.855,43.457,35.156,28.809,11.719,0
1539623627.453,32.715,40.039,33.203,20.508,27.832,0
1539623627.457,33.691,40.527,39.062,21.973,71.289,0
1539623627.461,35.156,41.992,39.551,24.414,98.145,0
1539623627.465,35.645,37.109,35.645,28.809,38.086,0
1539623627.469,23.926,38.086,35.645,23.438,51.758,0
1539623627.473,19.531,39.551,41.992,18.555,57.129,0
1539623627.477,24.414,42.969,45.898,26.855,62.012,0
1539623627.480,22.949,41.016,42.969,29.785,72.266,0
1539623627.484,21.973,35.645,38.574,25.879,51.270,0
1539623627.488,41.504,39.551,42.969,31.738,86.426,0
1539623627.492,40.039,41.016,45.410,32.715,82.520,0
1539623627.496,28.320,36.133,40.039,20.508,34.180,0
1539623627.500,22.949,33.691,36.621,21.973,36.133,0
1539623627.504,34.180,40.039,40.039,40.039,71.777,0
1539623627.508,48.828,44.922,41.016,38.086,58.594,0
1539623627.512,22.949,43.945,30.273,10.254,5.859,0
1539623627.516,10.254,41.016,28.320,2.441,67.871,0
1539623627.520,31.250,39.062,41.992,16.602,76.172,0
1539623627.523,13.184,36.133,35.645,6.348,26.367,0
1539623627.527,-1.465,35.156,25.391,0.977,23.438,0
1539623627.531,12.207,36.133,32.715,10.254,35.645,0
1539623627.535,8.789,34.668,32.227,15.137,72.266,0
1539623627.539,10.254,36.621,30.762,17.090,68.848,0
1539623627.543,17.090,33.691,31.250,9.277,57.129,0
1539623627.547,21.484,34.668,33.203,4.395,41.504,0
1539623627.551,23.926,38.086,39.551,11.719,20.508,0
1539623627.555,16.602,35.645,37.598,20.020,20.020,0
1539623627.559,28.320,33.691,29.297,18.066,44.922,0
1539623627.563,37.598,39.551,30.762,23.926,54.199,0
1539623627.566,28.809,44.434,35.156,28.320,32.715,0
1539623627.570,24.902,38.574,37.598,20.996,31.250,0
1539623627.574,17.578,34.668,36.133,21.484,71.777,0
1539623627.578,19.043,39.062,35.156,29.297,80.078,0
1539623627.582,19.043,37.109,36.621,28.809,29.785,0
1539623627.586,20.020,33.691,36.621,24.414,-1.953,0
1539623627.590,22.461,34.180,39.551,15.137,-13.672,0
1539623627.594,15.625,36.621,40.527,15.625,-27.832,0
1539623627.598,9.277,42.480,38.574,24.414,0.488,0
1539623627.602,15.625,44.434,35.645,20.508,-10.742,0
1539623627.605,25.879,40.527,34.180,12.695,33.691,0
1539623627.609,32.227,37.598,41.016,21.484,64.453,0
1539623627.613,21.484,38.086,42.969,23.438,80.078,0
1539623627.617,9.277,36.621,38.086,14.160,74.219,0
1539623627.621,17.090,38.574,37.598,21.973,84.961,0
1539623627.625,15.137,40.039,40.039,24.414,69.824,0
1539623627.629,15.137,37.598,43.457,21.484,0.488,0
1539623627.633,16.602,36.621,41.016,19.531,49.805,0
1539623627.637,18.066,37.598,38.086,20.508,69.824,0
1539623627.641,17.090,39.062,37.109,27.344,-12.695,0
1539623627.645,9.766,38.574,33.691,24.414,-25.879,0
1539623627.648,19.043,35.156,30.762,20.996,9.766,0
1539623627.652,26.367,34.180,29.785,21.973,0.488,0
1539623627.656,32.227,39.551,34.668,26.855,39.551,0
1539623627.660,36.621,41.504,35.156,28.320,22.461,0
1539623627.664,39.551,36.133,35.156,27.832,9.277,0
1539623627.668,41.016,34.668,35.156,25.879,47.852,0
1539623627.672,29.297,36.621,29.785,25.391,9.766,0
1539623627.676,14.648,36.621,31.738,22.949,-25.391,0
1539623627.680,15.625,35.156,37.109,17.578,64.453,0
1539623627.684,32.227,39.062,29.297,21.973,97.656,0
1539623627.688,32.227,42.480,26.855,33.203,65.430,0
1539623627.691,19.043,39.551,31.738,32.227,41.992,0
1539623627.695,19.531,37.109,31.250,24.414,13.672,0
1539623627.699,25.391,36.621,37.109,25.391,23.926,0
1539623627.703,28.320,37.598,38.086,19.043,38.574,0
1539623627.707,20.996,37.598,34.668,11.719,52.734,0
1539623627.711,20.996,39.551,38.574,19.531,18.555,0
1539623627.715,29.297,44.434,44.434,24.414,-4.395,1
1539623627.719,31.738,46.875,43.457,26.367,16.113,0
1539623627.723,37.109,41.504,39.551,31.250,38.574,0
1539623627.727,39.062,38.574,35.645,27.344,23.438,0
1539623627.730,45.410,39.062,33.691,26.855,44.434,0
1539623627.734,45.898,40.039,39.551,41.504,42.969,0
1539623627.738,22.949,40.039,36.621,28.809,81.543,0
1539623627.742,7.324,35.156,31.738,17.090,132.324,0
1539623627.746,22.949,38.574,43.457,29.785,75.684,0
1539623627.750,35.156,42.969,46.875,27.344,37.109,0
1539623627.754,26.367,33.691,42.969,20.020,67.871,0
1539623627.758,20.020,35.645,44.922,17.090,60.059,0
1539623627.762,26.367,41.504,42.480,18.066,18.066,0
1539623627.766,36.133,41.992,37.109,24.414,23.438,0
1539623627.770,33.691,42.480,38.574,30.273,8.789,0
1539623627.773,33.691,41.504,42.969,35.156,65.918,0
1539623627.777,40.039,41.016,42.969,39.062,62.500,0
1539623627.781,28.809,36.621,39.551,36.133,42.969,0
1539623627.785,22.949,35.645,36.621,34.180,51.758,0
1539623627.789,28.320,40.527,38.086,35.156,1.465,0
1539623627.793,32.227,44.434,36.621,26.367,34.668,0
1539623627.797,29.297,43.945,28.809,19.531,36.133,0
1539623627.801,29.297,44.922,27.344,24.414,-6.836,0
1539623627.805,31.250,43.945,30.762,20.996,26.855,0
1539623627.809,27.344,43.457,31.250,19.531,85.449,0
1539623627.813,26.367,46.387,34.180,31.738,52.734,0
1539623627.816,33.203,46.875,36.133,33.691,5.371,0
1539623627.820,29.297,45.898,37.598,27.344,41.992,0
1539623627.824,28.320,42.969,39.062,27.344,4.883,0
1539623627.828,36.621,38.574,41.504,28.809,-29.297,0
1539623627.832,32.715,40.527,45.410,29.785,-1.953,0
1539623627.836,23.926,43.457,31.250,26.855,9.766,0
1539623627.840,13.672,40.527,20.020,14.160,20.996,0
1539623627.844,4.395,37.598,24.902,14.160,19.531,0
1539623627.848,17.578,37.598,26.855,21.484,45.898,0
1539623627.852,19.043,34.668,27.344,18.555,39.062,0
1539623627.855,8.301,32.227,29.297,11.719,27.344,0
1539623627.859,11.719,28.320,34.668,9.766,52.246,0
1539623627.863,21.973,31.250,36.133,14.160,17.090,0
1539623627.867,24.902,34.180,37.109,11.230,-5.859,0
1539623627.871,21.973,35.645,40.527,13.672,12.207,0
1539623627.875,15.137,39.551,38.574,25.879,-8.789,0
1539623627.879,12.207,41.504,39.551,30.273,41.016,0
1539623627.883,10.742,38.086,44.434,21.973,67.383,0
1539623627.887,12.207,37.109,40.527,24.414,57.129,0
1539623627.891,25.391,42.969,38.086,35.156,82.031,0
1539623627.895,28.320,44.434,38.086,30.762,33.203,0
1539623627.898,24.902,40.039,34.180,21.973,-29.297,0
1539623627.902,27.344,33.691,34.180,18.555,16.113,0
1539623627.906,30.273,32.227,39.551,17.090,28.320,0
1539623627.910,27.832,34.668,40.039,16.602,42.480,0
1539623627.914,19.043,37.598,41.016,20.020,28.320,0
1539623627.918,18.066,40.039,37.598,12.207,24.902,0
1539623627.922,16.113,39.062,34.180,8.789,56.152,0
1539623627.926,9.277,37.598,35.156,12.207,15.625,0
1539623627.930,12.695,36.621,31.738,13.184,5.371,0
1539623627.934,16.602,37.109,36.621,9.766,21.973,0
1539623627.938,20.508,35.645,41.992,25.879,27.832,0
1539623627.941,40.039,33.203,41.504,48.340,52.734,0
1539623627.945,44.922,39.551,31.738,31.250,20.508,0
1539623627.949,25.879,42.969,28.320,12.695,33.691,0
1539623627.953,36.133,43.945,35.156,25.391,82.520,0
1539623627.957,37.598,42.969,32.715,41.992,19.043,0
1539623627.961,31.250,40.527,29.785,36.621,-27.832,0
1539623627.965,40.039,43.945,30.762,36.133,17.090,0
1539623627.969,41.992,46.387,33.203,47.852,2.930,0
1539623627.973,54.199,43.457,34.668,47.852,13.672,0
1539623627.977,46.875,38.086,35.156,44.434,42.969,0
1539623627.980,37.598,34.180,37.598,43.457,39.551,0
1539623627.984,46.875,35.645,41.016,47.852,26.367,0
1539623627.988,49.316,37.109,41.504,48.340,12.207,0
1539623627.992,27.344,36.133,41.504,36.621,54.688,0
1539623627.996,13.184,39.062,44.434,35.156,43.945,0
1539623628.000,24.414,41.016,41.504,39.062,32.227,0
1539623628.004,33.203,40.527,41.016,36.133,23.438,0
1539623628.008,31.738,37.109,45.410,29.297,11.230,0
1539623628.012,26.367,38.086,45.898,28.809,22.461,0
1539623628.016,25.391,38.574,44.434,25.391,-17.578,0
1539623628.020,24.902,38.574,43.457,29.297,-2.441,0
1539623628.023,18.066,38.574,44.922,33.691,41.504,0
1539623628.027,24.902,39.551,49.316,32.227,65.918,0
1539623628.031,37.598,43.457,52.246,37.109,77.148,0
1539623628.035,36.621,41.504,53.223,36.133,13.672,0
1539623628.039,25.391,35.645,43.945,36.133,28.809,0
1539623628.043,28.320,36.133,36.621,40.039,36.133,0
1539623628.047,30.273,34.668,40.527,36.133,59.570,0
1539623628.051,35.156,38.086,41.992,35.645,90.332,0
1539623628.055,42.480,43.457,44.922,45.410,49.805,0
1539623628.059,35.156,46.387,45.898,44.434,91.309,0
1539623628.063,36.133,47.363,40.039,32.715,82.520,0
1539623628.066,42.480,44.434,37.109,30.273,71.777,0
1539623628.070,40.039,42.480,35.645,31.250,15.137,0
1539623628.074,29.785,41.016,37.109,33.203,6.348,0
1539623628.078,26.855,37.109,35.645,28.809,30.762,0
1539623628.082,26.855,34.668,34.180,26.855,-14.160,0
1539623628.086,24.902,38.574,35.645,27.832,-42.969,0
1539623628.090,28.320,42.480,38.574,22.461,-5.371,0
1539623628.094,26.367,41.016,42.480,19.531,15.625,0
1539623628.098,20.020,39.551,37.598,16.113,39.062,0
1539623628.102,17.578,38.574,34.668,23.926,41.992,0
1539623628.105,7.812,36.133,33.691,29.297,8.301,0
1539623628.109,9.766,37.598,29.297,19.531,41.992,0
1539623628.113,18.555,36.621,35.156,13.184,43.945,0
1539623628.117,13.672,35.156,37.598,18.066,28.809,0
1539623628.121,13.184,37.598,35.156,15.625,-15.625,0
1539623628.125,10.254,36.133,31.738,10.254,41.016,0
1539623628.129,6.836,35.156,30.762,11.230,55.176,0
1539623628.133,20.020,38.574,40.527,12.207,20.508,0
1539623628.137,23.438,39.551,42.480,14.160,27.344,0
1539623628.141,23.438,39.062,37.598,19.043,-12.207,0
1539623628.145,27.344,38.574,37.109,16.602,14.648,0
1539623628.148,30.273,41.504,40.527,18.555,54.688,0
1539623628.152,31.738,40.039,37.598,16.113,104.980,0
1539623628.156,25.391,39.062,34.180,18.066,82.520,0
1539623628.160,21.484,41.016,36.133,26.855,0.977,0
1539623628.164,28.320,37.598,38.574,21.973,7.812,0
1539623628.168,29.297,38.574,37.109,14.648,31.250,0
1539623628.172,23.438,38.086,35.645,7.812,42.969,0
1539623628.176,22.461,38.086,41.992,19.043,59.570,0
1539623628.180,26.855,39.062,50.781,26.855,30.273,0
1539623628.184,25.391,33.691,50.781,19.531,49.316,0
1539623628.188,22.949,34.180,40.527,19.043,43.945,0
1539623628.191,22.461,38.574,41.992,22.949,8.789,0
1539623628.195,27.832,39.062,46.875,24.414,57.129,0
1539623628.199,36.133,41.504,41.992,26.367,89.355,0
1539623628.203,22.461,45.410,40.527,34.180,57.617,0
1539623628.207,26.855,49.316,41.016,41.504,25.391,0
1539623628.211,35.156,48.340,42.969,33.691,39.062,0
1539623628.215,18.555,42.480,46.387,24.414,9.766,0
1539623628.219,19.531,37.598,47.852,29.785,-33.203,0
1539623628.223,22.461,39.062,45.410,29.297,46.875,0
1539623628.227,16.602,40.039,43.457,25.879,76.660,0
1539623628.230,21.973,39.551,45.898,29.785,47.852,0
1539623628.234,38.086,37.598,45.410,32.715,31.250,0
1539623628.238,40.527,36.621,48.340,39.062,-11.719,0
1539623628.242,30.762,40.039,47.852,32.715,19.531,0
1539623628.246,24.902,40.527,42.480,16.602,19.531,0
1539623628.250,28.320,37.109,43.457,24.902,-20.020,0
1539623628.254,35.645,42.969,45.898,34.180,14.648,0
1539623628.258,26.855,43.945,46.387,31.738,23.926,0
1539623628.262,20.508,36.133,41.992,23.926,46.875,0
1539623628.266,28.809,41.504,43.457,23.438,43.457,0
1539623628.270,27.344,43.457,47.363,30.273,-4.395,0
1539623628.273,16.602,36.133,45.898,28.320,68.359,0
1539623628.277,20.020,34.180,48.828,26.367,94.727,0
1539623628.281,27.832,37.598,50.293,31.250,39.062,0
1539623628.285,22.949,38.574,46.875,33.691,20.996,0
1539623628.289,34.668,37.109,46.875,27.832,-5.859,0
1539623628.293,37.109,39.062,48.340,28.809,-24.902,0
1539623628.297,25.879,39.551,45.898,33.691,-11.719,0
1539623628.301,38.574,41.016,43.457,33.691,42.969,0
1539623628.305,41.992,41.992,41.992,31.738,66.406,0
1539623628.309,23.438,41.016,38.086,30.273,62.988,0
1539623628.313,23.926,40.039,43.945,32.227,67.383,0
1539623628.316,28.809,37.598,43.457,28.320,60.547,0
1539623628.320,27.344,35.645,30.273,21.973,89.844,0
1539623628.324,20.996,36.133,28.809,20.996,56.152,0
1539623628.328,20.508,35.645,35.156,25.391,10.742,0
1539623628.332,27.832,35.156,41.504,28.320,-44.434,0
1539623628.336,26.367,35.156,41.016,21.484,-45.898,0
1539623628.340,25.391,36.621,39.062,19.043,56.641,0
1539623628.344,24.414,39.551,42.480,19.531,75.684,0
1539623628.348,18.066,39.062,42.480,19.043,6.348,0
1539623628.352,16.602,37.598,41.016,12.695,-36.133,0
1539623628.355,32.715,37.598,39.062,15.137,9.277,0
1539623628.359,35.156,43.457,43.457,25.879,45.410,0
1539623628.363,27.344,42.969,46.387,30.762,3.418,0
1539623628.367,24.902,37.598,41.504,24.902,48.340,0
1539623628.371,24.414,39.551,40.527,25.391,46.875,0
1539623628.375,28.320,42.480,44.922,28.809,16.602,0
1539623628.379,26.367,40.039,49.316,20.996,39.551,0
1539623628.383,23.926,33.691,39.062,18.066,54.199,0
1539623628.387,17.090,33.203,29.297,15.137,34.180,0
1539623628.391,12.207,39.062,38.086,12.695,24.414,0
1539623628.395,23.438,42.480,42.480,12.695,25.391,0
1539623628.398,12.695,38.574,36.133,11.719,45.410,0
1539623628.402,4.883,36.621,33.691,18.555,56.641,0
1539623628.406,31.738,44.922,38.086,27.344,43.457,0
1539623628.410,36.133,44.922,33.691,20.996,35.645,0
1539623628.414,20.508,35.156,29.785,18.555,18.066,0
1539623628.418,24.414,35.645,43.457,29.297,45.898,0
1539623628.422,36.133,35.645,48.340,30.762,30.762,0
1539623628.426,39.062,35.645,44.434,28.320,60.547,0
1539623628.430,22.461,39.551,41.016,17.090,30.762,0
1539623628.434,24.902,39.062,36.621,10.742,23.438,0
1539623628.438,24.902,37.109,41.016,15.137,53.711,0
1539623628.441,12.695,40.039,40.527,8.301,28.809,0
1539623628.445,9.277,35.645,39.062,4.395,33.203,0
1539623628.449,11.719,32.227,38.574,9.277,25.391,0
1539623628.453,25.391,34.668,34.668,7.324,3.418,0
1539623628.457,11.719,31.738,34.668,6.348,21.484,0
1539623628.461,11.230,33.203,35.645,10.742,66.406,0
1539623628.465,31.738,39.551,39.551,17.090,34.180,0
1539623628.469,27.344,42.969,41.016,22.461,35.156,0
1539623628.473,20.508,43.945,38.086,11.230,47.852,0
1539623628.477,25.391,47.852,40.039,13.672,17.578,0
1539623628.480,27.832,43.457,41.016,22.461,20.996,0
1539623628.484,22.949,40.039,39.062,20.996,26.367,0
1539623628.488,31.738,42.969,29.785,16.602,11.230,0
1539623628.492,37.598,42.969,28.809,18.066,16.602,0
1539623628.496,20.508,42.969,34.668,20.508,17.090,0
1539623628.500,4.395,40.039,39.062,18.066,36.133,0
1539623628.504,4.883,39.062,44.434,19.043,42.969,0
1539623628.508,11.230,41.504,40.039,21.484,16.602,0
1539623628.512,12.695,37.109,36.133,18.555,14.648,0
1539623628.516,21.973,31.250,35.645,18.555,32.227,0
1539623628.520,19.531,34.668,33.203,19.043,16.602,0
1539623628.523,22.949,39.551,28.809,21.484,-3.418,0
1539623628.527,37.598,39.551,28.320,26.367,19.043,0
1539623628.531,27.344,37.598,33.203,22.949,-5.371,0
1539623628.535,18.555,37.598,35.645,18.555,-14.160,0
1539623628.539,20.996,41.504,44.434,23.926,16.113,0
1539623628.543,24.414,45.410,44.434,19.531,15.625,0
1539623628.547,20.996,39.062,33.691,6.836,32.227,0
1539623628.551,25.879,39.551,36.133,18.555,43.457,0
1539623628.555,31.738,40.039,43.945,22.461,-45.410,0
1539623628.559,27.344,34.668,40.527,16.602,12.695,0
1539623628.563,25.391,32.715,36.133,12.207,82.031,0
1539623628.566,18.066,33.203,37.598,12.207,44.922,0
1539623628.570,13.184,40.039,40.527,14.160,21.484,0
1539623628.574,17.090,39.551,39.062,15.625,32.715,0
1539623628.578,21.973,37.109,29.785,17.578,52.246,0
1539623628.582,9.277,38.086,24.902,9.277,77.148,0
1539623628.586,14.648,36.621,27.344,2.930,95.215,0
1539623628.590,27.832,33.691,26.367,9.766,62.988,0
1539623628.594,17.090,35.645,27.344,22.461,53.223,0
1539623628.598,7.812,41.016,27.832,21.484,32.715,0
1539623628.602,23.438,41.016,27.832,12.695,0.000,0
1539623628.605,22.949,41.992,34.668,11.230,39.062,0
1539623628.609,14.160,44.434,33.203,18.555,88.867,0
1539623628.613,18.066,42.969,34.180,23.438,58.594,0
1539623628.617,19.531,40.527,40.527,19.043,58.105,0
1539623628.621,19.531,39.062,37.598,20.508,68.359,0
1539623628.625,20.996,38.086,34.180,29.297,61.523,0
1539623628.629,25.391,41.016,32.227,35.156,29.785,0
1539623628.633,26.855,39.551,31.250,28.809,87.402,0
1539623628.637,31.738,39.551,27.344,26.855,102.051,0
1539623628.641,30.273,42.969,27.344,28.320,52.734,0
1539623628.645,28.809,45.410,38.086,32.715,50.781,0
1539623628.648,37.109,44.434,42.480,40.039,25.879,0
1539623628.652,27.832,40.527,37.109,30.762,-8.301,0
1539623628.656,27.344,42.969,32.715,27.344,-9.766,0
1539623628.660,33.691,43.457,31.738,28.809,-32.227,0
1539623628.664,26.855,38.086,34.668,27.832,-8.789,0
1539623628.668,27.344,35.645,36.621,31.738,64.453,0
1539623628.672,33.203,39.062,38.086,28.320,25.391,0
1539623628.676,34.668,38.086,38.086,26.855,5.859,0
1539623628.680,40.527,38.574,36.621,29.785,25.879,0
1539623628.684,39.551,36.621,36.621,29.297,35.156,0
1539623628.688,32.715,32.227,40.527,33.203,47.852,0
1539623628.691,37.598,35.645,42.969,38.086,48.340,0
1539623628.695,30.273,39.551,41.992,23.438,32.227,0
1539623628.699,24.414,36.133,42.480,14.648,11.230,0
1539623628.703,29.297,37.598,41.016,25.879,53.711,0
1539623628.707,26.855,43.457,36.621,26.367,74.707,0
1539623628.711,14.648,41.016,37.598,12.207,54.688,0
1539623628.715,9.277,37.109,37.598,20.508,40.039,0
1539623628.719,16.113,34.668,35.645,30.762,30.273,0
1539623628.723,25.391,33.691,37.598,26.855,55.664,0
1539623628.727,27.344,34.668,41.016,27.344,36.133,0
1539623628.730,26.855,34.668,37.598,25.879,18.555,0
1539623628.734,19.531,37.109,30.273,29.785,64.941,0
1539623628.738,20.508,38.574,32.227,27.344,59.570,0
1539623628.742,22.461,30.762,33.203,18.066,-13.672,0
1539623628.746,30.273,29.785,27.344,24.414,0.000,0
1539623628.750,25.391,35.645,27.344,22.949,27.344,0
1539623628.754,24.414,37.598,28.809,20.996,53.711,0
1539623628.758,28.809,37.109,23.438,28.320,23.438,0
1539623628.762,25.391,39.062,25.879,29.785,25.879,0
1539623628.766,26.855,42.969,29.785,13.672,85.938,0
1539623628.770,29.297,41.016,30.273,17.090,16.602,0
1539623628.773,37.598,36.621,33.691,30.273,10.742,0
1539623628.777,36.133,33.203,36.621,20.996,21.973,0
1539623628.781,20.508,38.086,44.922,24.414,18.555,0
1539623628.785,12.207,41.992,45.898,25.879,14.648,0
1539623628.789,20.020,39.062,41.016,19.531,-18.066,0
1539623628.793,26.855,39.551,43.945,27.832,20.996,0
1539623628.797,30.762,34.668,48.340,25.879,49.316,0
1539623628.801,22.949,31.250,41.504,13.672,28.320,0
1539623628.805,20.508,33.691,36.133,14.648,53.711,0
1539623628.809,28.809,36.621,37.109,22.461,69.336,0
1539623628.813,39.551,38.086,36.621,25.879,31.738,0
1539623628.816,40.527,40.039,40.527,27.344,86.914,0
1539623628.820,22.461,41.992,37.598,22.949,60.547,0
1539623628.824,28.320,43.457,36.133,17.578,41.992,0
1539623628.828,36.133,42.480,39.551,20.996,95.703,0
1539623628.832,28.320,39.551,32.715,20.996,4.395,0
1539623628.836,23.438,39.062,36.133,21.484,0.977,0
1539623628.840,28.320,35.156,42.969,21.484,38.574,0
1539623628.844,34.180,33.691,39.062,23.926,15.137,0
1539623628.848,41.504,35.645,41.504,25.391,54.688,0
1539623628.852,37.109,34.668,41.992,24.902,62.012,0
1539623628.855,28.809,32.227,41.016,20.996,37.598,0
1539623628.859,34.668,35.645,37.109,21.973,34.180,0
1539623628.863,35.645,39.551,32.715,26.855,-2.441,0
1539623628.867,27.832,31.738,34.180,21.973,-33.203,0
1539623628.871,31.738,36.621,38.574,23.438,-14.160,0
1539623628.875,30.273,41.992,43.457,28.809,40.039,0
1539623628.879,20.508,36.133,36.133,22.461,70.801,0
1539623628.883,25.879,32.715,32.715,14.648,40.527,0
1539623628.887,21.484,32.227,32.227,11.719,74.707,0
1539623628.891,18.555,35.645,27.344,16.113,52.246,0
1539623628.895,17.090,36.621,33.203,8.301,32.715,0
1539623628.898,18.555,41.016,36.133,6.836,53.223,0
1539623628.902,31.738,41.504,35.156,20.508,40.527,0
1539623628.906,37.109,33.203,38.574,17.578,37.598,0
1539623628.910,28.809,31.250,37.598,12.207,18.555,0
1539623628.914,18.555,36.133,38.086,14.648,63.477,0
1539623628.918,16.602,36.621,37.109,8.789,92.773,0
1539623628.922,19.531,34.180,31.738,9.766,78.613,0
1539623628.926,30.762,39.551,34.668,24.414,45.898,0
1539623628.930,30.762,40.527,34.668,28.809,0.488,0
1539623628.934,17.578,33.691,27.344,18.555,-0.488,0
1539623628.938,20.508,31.250,27.344,20.020,-46.875,0
1539623628.941,29.785,38.086,29.297,19.531,-83.008,0
1539623628.945,29.297,44.434,31.738,12.695,17.578,0
1539623628.949,27.832,42.480,30.762,10.742,48.828,0
1539623628.953,21.973,38.086,24.902,5.371,-40.039,0
1539623628.957,17.578,38.574,23.438,5.371,-32.227,0
1539623628.961,15.137,39.062,25.879,8.789,-12.207,0
1539623628.965,16.113,32.227,27.832,7.324,1.465,0
1539623628.969,17.090,30.273,24.902,2.930,-3.418,0
1539623628.973,20.996,34.668,19.531,9.766,-45.898,0
1539623628.977,25.391,38.086,23.926,13.672,27.832,0
1539623628.980,24.414,38.086,28.809,12.207,102.051,0
1539623628.984,20.020,35.156,27.344,11.719,40.039,0
1539623628.988,26.367,35.156,28.809,23.438,2.441,0
1539623628.992,29.297,38.086,30.273,28.320,3.418,0
1539623628.996,19.531,38.086,27.344,16.113,-1.953,0
1539623629.000,28.320,40.527,24.902,19.531,17.090,0
1539623629.004,32.227,44.434,26.855,24.902,43.945,0
1539623629.008,30.273,38.086,30.273,17.090,41.992,0
1539623629.012,34.668,34.668,31.250,21.484,41.016,0
1539623629.016,33.203,37.598,29.297,33.203,58.105,0
1539623629.020,22.461,38.574,32.227,32.715,69.824,0
1539623629.023,25.879,37.109,41.504,31.250,52.734,0
1539623629.027,31.250,33.203,37.109,33.203,30.762,0
1539623629.031,31.250,33.691,29.785,38.086,3.418,0
1539623629.035,34.668,37.598,32.715,37.109,20.508,0
1539623629.039,26.367,41.016,29.297,30.762,76.172,0
1539623629.043,26.855,38.574,23.438,27.344,62.012,0
1539623629.047,31.250,39.062,30.762,30.273,57.617,0
1539623629.051,29.785,39.062,30.273,31.250,49.316,0
1539623629.055,20.996,34.180,28.320,25.879,63.965,0
1539623629.059,20.508,32.715,38.574,26.367,103.516,0
1539623629.063,20.996,32.227,40.039,29.297,56.152,0
1539623629.066,22.461,33.203,36.133,33.203,17.090,0
1539623629.070,20.020,33.203,31.250,25.391,7.812,1
1539623629.074,10.254,30.762,29.297,11.230,37.598,0
1539623629.078,28.320,37.109,33.691,20.996,69.336,0
1539623629.082,41.504,38.086,31.738,28.320,50.293,0
1539623629.086,33.691,35.156,27.344,20.508,18.555,0
1539623629.090,27.832,37.598,29.297,25.391,29.297,0
1539623629.094,29.785,43.457,35.645,28.809,14.648,0
1539623629.098,34.668,42.969,39.062,31.250,58.105,0
1539623629.102,37.109,44.922,35.645,34.180,34.668,0
1539623629.105,27.832,45.898,32.227,29.297,-20.508,0
1539623629.109,31.250,45.898,35.645,30.762,-53.223,0
1539623629.113,33.691,43.945,40.527,25.879,-17.090,0
1539623629.117,16.602,36.133,39.062,12.695,65.918,0
1539623629.121,26.367,38.574,36.133,12.207,40.039,0
1539623629.125,24.902,41.504,30.762,6.836,7.812,0
1539623629.129,14.160,43.945,30.273,9.277,-25.879,0
1539623629.133,12.695,45.410,30.762,12.207,14.160,0
1539623629.137,15.625,36.621,29.785,7.324,50.293,0
1539623629.141,17.090,30.762,31.250,11.230,-4.883,0
1539623629.145,17.090,35.156,29.297,18.066,-20.508,0
1539623629.148,30.273,42.480,30.762,15.137,38.574,0
1539623629.152,37.109,39.551,32.715,20.020,73.242,0
1539623629.156,29.785,39.062,35.156,22.949,78.125,0
1539623629.160,27.832,40.527,34.668,12.695,58.594,0
1539623629.164,22.461,39.062,33.691,15.137,-45.898,0
1539623629.168,20.996,40.527,41.992,22.461,-15.137,0
1539623629.172,26.855,39.062,44.434,23.926,88.379,0
1539623629.176,21.973,36.133,43.457,25.879,70.801,0
1539623629.180,20.508,39.062,45.898,32.715,38.086,0
1539623629.184,25.879,39.062,46.875,32.715,13.672,0
1539623629.188,28.320,34.180,47.852,35.645,26.855,0
1539623629.191,18.555,34.180,45.410,31.738,58.105,0
1539623629.195,12.207,36.621,30.762,18.555,95.703,0
1539623629.199,18.066,35.156,25.391,21.973,32.227,0
1539623629.203,7.812,31.250,39.551,17.578,0.977,0
1539623629.207,3.906,31.738,41.016,12.207,59.082,0
1539623629.211,18.555,36.621,39.551,19.531,20.996,0
1539623629.215,23.438,36.133,42.480,20.996,-38.086,0
1539623629.219,15.137,32.227,46.387,21.973,-8.789,0
1539623629.223,20.508,36.133,47.363,19.531,28.320,0
1539623629.227,26.367,36.621,45.410,15.137,7.324,0
1539623629.230,30.273,33.203,43.457,15.625,0.488,0
1539623629.234,28.809,37.598,42.969,23.438,22.461,0
1539623629.238,21.973,37.598,45.898,28.809,66.895,0
1539623629.242,30.273,34.668,41.504,30.762,65.430,0
1539623629.246,35.156,39.551,41.016,35.156,68.359,0
1539623629.250,35.645,41.016,46.387,25.879,76.172,0
1539623629.254,35.156,41.016,41.992,15.625,36.133,0
1539623629.258,32.715,42.480,41.016,22.461,36.133,0
1539623629.262,35.156,45.898,44.922,35.645,32.715,0
1539623629.266,30.273,42.969,46.875,35.156,69.824,0
1539623629.270,31.738,38.574,44.434,27.344,80.078,0
1539623629.273,34.180,37.598,40.527,24.902,61.035,0
1539623629.277,33.691,38.086,37.109,24.902,34.180,0
1539623629.281,34.668,41.992,34.180,23.438,10.742,0
1539623629.285,24.902,42.969,34.180,27.832,26.855,0
1539623629.289,26.367,42.969,36.621,26.855,36.621,0
1539623629.293,30.273,43.945,43.945,16.113,20.020,0
1539623629.297,14.160,42.480,44.922,3.418,29.297,0
1539623629.301,30.273,42.969,40.527,6.836,35.645,0
1539623629.305,35.156,39.551,45.410,15.137,46.387,0
1539623629.309,15.625,39.062,48.828,20.508,94.238,0
1539623629.313,25.879,47.852,48.828,24.414,73.242,0
1539623629.316,30.273,48.340,45.410,33.203,61.523,0
1539623629.320,27.832,44.434,41.504,32.227,71.289,0
1539623629.324,30.273,41.016,38.574,21.973,55.664,0
1539623629.328,25.879,36.133,37.598,24.414,38.574,0
1539623629.332,26.855,37.598,40.527,32.715,20.996,0
1539623629.336,33.203,44.434,42.969,24.414,23.926,0
1539623629.340,33.691,42.969,47.363,14.160,47.852,0
1539623629.344,25.391,38.086,45.898,25.879,60.547,0
1539623629.348,27.832,36.621,44.922,27.832,25.391,0
1539623629.352,34.180,39.551,49.316,24.902,28.320,0
1539623629.355,29.785,40.527,52.734,32.715,-14.648,0
1539623629.359,28.320,41.504,44.922,30.762,-28.320,0
1539623629.363,31.738,43.457,39.551,24.414,8.301,0
1539623629.367,28.809,38.574,39.062,19.043,54.688,0
1539623629.371,14.160,38.086,33.203,12.695,48.340,0
1539623629.375,2.930,40.039,27.344,12.695,21.973,0
1539623629.379,16.602,42.969,29.785,16.113,30.273,0
1539623629.383,24.902,43.945,36.621,13.184,71.289,0
1539623629.387,8.301,36.133,31.738,3.418,71.777,0
1539623629.391,6.348,36.133,31.738,6.348,34.668,0
1539623629.395,23.926,39.062,35.645,8.789,44.922,0
1539623629.398,29.297,34.180,31.250,8.301,104.004,0
1539623629.402,18.066,32.715,30.273,15.137,93.262,0
1539623629.406,7.324,32.227,37.109,19.531,48.340,0
1539623629.410,23.438,35.156,42.969,22.949,19.531,0
1539623629.414,22.461,34.668,38.574,23.438,52.734,0
1539623629.418,12.207,28.809,31.738,26.855,54.199,0
1539623629.422,15.137,32.715,32.715,32.227,34.180,0
1539623629.426,19.043,38.086,34.180,36.133,112.793,0
1539623629.430,36.621,38.086,34.668,39.062,38.086,0
1539623629.434,34.668,37.109,33.203,35.156,2.930,0
1539623629.438,25.879,39.551,34.668,40.039,41.504,0
1539623629.441,27.832,39.551,41.016,46.875,-14.648,0
1539623629.445,25.879,33.691,43.457,33.691,-2.930,0
1539623629.449,23.926,32.227,44.922,28.809,-12.207,0
1539623629.453,26.855,35.645,55.664,40.527,-10.254,0
1539623629.457,25.879,37.109,54.688,41.016,49.316,0
1539623629.461,21.484,35.156,42.480,37.598,11.719,0
1539623629.465,21.973,32.715,37.109,36.133,10.742,0
1539623629.469,15.625,36.133,41.504,34.180,65.918,0
1539623629.473,20.020,42.969,43.457,38.086,93.262,0
1539623629.477,29.297,44.434,39.551,37.598,88.867,0
1539623629.480,29.297,41.992,41.992,28.809,56.152,0
1539623629.484,43.457,45.410,49.805,39.551,51.270,0
1539623629.488,47.852,43.945,50.781,45.410,11.230,0
1539623629.492,36.133,31.738,43.457,37.598,-33.691,0
1539623629.496,35.156,29.785,40.527,38.574,23.438,0
1539623629.500,43.945,34.180,46.387,34.668,95.215,0
1539623629.504,37.109,35.156,47.852,29.297,66.895,0
1539623629.508,37.598,35.156,43.457,35.156,64.453,0
1539623629.512,47.852,37.598,45.898,49.316,61.035,0
1539623629.516,40.527,37.598,46.387,47.363,23.438,0
1539623629.520,41.992,37.598,39.062,35.156,59.082,0
1539623629.523,35.645,37.598,38.086,34.180,-11.719,0
1539623629.527,29.785,35.645,39.062,33.203,-43.945,0
1539623629.531,37.109,41.992,39.551,31.738,73.730,0
1539623629.535,31.250,44.434,38.086,26.855,83.984,0
1539623629.539,20.508,42.969,35.156,23.926,87.891,0
1539623629.543,21.484,41.504,39.551,24.902,97.656,0
1539623629.547,29.297,38.086,40.039,28.809,27.344,0
1539623629.551,33.203,39.551,38.086,28.809,31.250,0
1539623629.555,28.320,39.062,31.738,20.996,66.406,0
1539623629.559,25.879,40.039,26.367,26.367,33.203,0
1539623629.563,27.344,41.992,30.273,31.738,16.113,0
1539623629.566,27.344,43.457,36.621,26.367,16.602,0
1539623629.570,29.785,43.457,35.156,31.738,5.371,0
1539623629.574,37.598,46.875,38.086,35.645,23.926,0
1539623629.578,47.852,49.805,44.434,32.227,59.082,0
1539623629.582,37.598,40.527,42.969,22.461,46.875,0
1539623629.586,30.762,41.504,44.434,29.297,74.219,0
1539623629.590,39.062,44.922,45.410,41.016,62.500,0
1539623629.594,32.715,42.480,41.016,42.969,43.945,0
1539623629.598,31.250,43.457,40.527,43.457,89.844,0
1539623629.602,38.574,40.039,40.527,33.203,76.660,0
1539623629.605,33.691,39.551,39.062,32.227,5.859,0
1539623629.609,39.062,41.992,39.551,30.762,-15.137,0
1539623629.613,33.203,41.016,42.969,20.508,15.137,0
1539623629.617,14.648,36.133,48.828,24.902,14.648,0
1539623629.621,21.484,37.109,50.293,34.668,-36.621,0
1539623629.625,22.949,39.062,41.504,23.438,-64.453,0
1539623629.629,16.602,41.016,32.227,18.066,-42.480,0
1539623629.633,11.719,43.457,33.203,26.367,40.527,0
1539623629.637,13.672,38.574,38.086,32.227,71.289,0
1539623629.641,29.785,37.109,42.480,33.203,2.930,0
1539623629.645,36.133,39.062,38.574,32.227,-31.250,0
1539623629.648,34.180,40.039,38.086,29.785,1.465,0
1539623629.652,31.250,39.551,42.969,22.949,17.578,0
1539623629.656,24.902,35.645,47.852,23.926,25.391,0
1539623629.660,27.832,36.621,47.363,24.414,39.062,0
1539623629.664,41.016,38.086,44.922,28.320,5.859,0
1539623629.668,37.598,39.551,48.340,30.762,-13.672,0
1539623629.672,23.926,40.527,45.410,26.855,73.730,0
1539623629.676,30.762,44.434,45.898,29.785,135.742,0
1539623629.680,47.363,50.781,49.316,40.527,54.199,0
1539623629.684,43.457,45.410,41.992,45.410,40.527,0
1539623629.688,22.461,35.645,39.062,38.086,20.020,0
1539623629.691,20.996,36.133,43.457,29.297,16.113,0
1539623629.695,28.809,36.621,41.992,25.879,45.898,0
1539623629.699,16.113,35.156,44.434,25.879,-1.953,0
1539623629.703,12.695,35.156,43.457,20.508,-21.973,0
1539623629.707,24.902,37.109,44.922,24.902,15.137,0
1539623629.711,25.879,36.621,45.898,24.902,13.672,0
1539623629.715,22.949,32.715,48.340,11.230,12.207,0
1539623629.719,17.578,34.180,46.387,14.160,38.086,0
1539623629.723,21.973,37.109,38.574,17.090,12.695,0
1539623629.727,32.715,39.551,37.598,20.508,9.766,0
1539623629.730,23.438,43.945,36.621,23.926,16.602,0
1539623629.734,15.137,40.527,32.227,18.555,23.926,0
1539623629.738,37.109,41.016,36.133,17.090,44.922,0
1539623629.742,40.039,44.434,39.062,20.020,39.062,0
1539623629.746,21.973,41.504,38.086,25.391,10.254,0
1539623629.750,21.484,41.992,40.527,23.438,-30.273,0
1539623629.754,28.809,45.898,42.969,18.555,1.953,0
1539623629.758,35.645,45.898,40.039,24.902,52.734,0
1539623629.762,25.879,36.133,35.645,13.672,13.184,0
1539623629.766,22.949,35.156,38.086,7.812,20.020,0
1539623629.770,32.715,42.969,41.504,16.113,63.477,0
1539623629.773,22.461,43.457,42.480,11.230,86.426,0
1539623629.777,10.254,34.180,33.691,8.789,37.598,0
1539623629.781,18.066,35.645,26.855,16.113,-13.184,0
1539623629.785,28.809,40.039,27.832,19.043,-4.395,0
1539623629.789,26.855,38.574,31.738,16.113,7.812,0
1539623629.793,25.879,39.551,36.133,13.184,31.738,0
1539623629.797,24.414,40.527,35.156,18.555,22.949,0
1539623629.801,19.043,42.480,41.992,24.902,0.488,0
1539623629.805,22.461,41.992,37.109,16.113,14.648,0
1539623629.809,21.484,40.527,26.855,6.836,49.805,0
1539623629.813,17.578,41.016,30.762,8.789,76.660,0
1539623629.816,24.414,39.062,29.297,14.160,52.246,0
1539623629.820,25.391,35.156,25.879,8.301,59.082,0
1539623629.824,16.113,40.039,26.855,8.301,88.867,0
1539623629.828,16.113,41.992,28.809,10.742,103.516,0
1539623629.832,20.508,41.016,30.273,15.625,91.797,0
1539623629.836,26.367,42.480,32.715,25.879,64.453,0
1539623629.840,21.973,36.621,39.062,20.020,56.641,0
1539623629.844,14.648,34.668,31.738,16.602,69.824,0
1539623629.848,30.762,40.039,23.438,25.391,70.312,0
1539623629.852,33.691,38.086,24.902,15.137,3.906,0
1539623629.855,11.230,36.133,20.996,8.789,38.574,0
1539623629.859,19.043,42.480,27.832,21.484,85.449,0
1539623629.863,29.785,36.621,35.645,26.855,23.438,0
1539623629.867,20.020,31.250,26.855,20.020,12.207,0
1539623629.871,23.438,35.156,28.320,24.902,3.418,0
1539623629.875,36.133,39.062,40.527,33.691,-16.602,0
1539623629.879,42.969,40.039,44.434,33.691,13.184,0
1539623629.883,39.551,39.062,42.969,22.949,73.730,0
1539623629.887,43.457,41.504,45.410,17.578,56.152,0
1539623629.891,35.156,39.551,52.734,27.344,28.320,0
1539623629.895,19.043,31.250,47.852,27.832,44.434,0
1539623629.898,14.648,31.250,39.551,25.391,35.645,0
1539623629.902,19.531,32.715,40.527,23.438,34.180,0
1539623629.906,34.668,38.574,40.039,26.367,30.762,0
1539623629.910,29.297,43.457,40.039,32.715,20.508,0
1539623629.914,15.137,40.527,39.551,29.297,2.930,0
1539623629.918,21.484,41.992,40.527,28.320,23.438,0
1539623629.922,20.020,39.551,48.340,26.855,34.668,0
1539623629.926,18.555,34.668,46.875,20.020,42.969,0
1539623629.930,23.438,33.203,38.086,13.672,53.223,0
1539623629.934,21.484,34.180,32.715,23.926,23.926,0
1539623629.938,15.137,33.691,31.250,27.832,3.418,0
1539623629.941,19.043,35.156,27.832,19.531,-32.227,0
1539623629.945,28.809,36.133,28.809,24.902,-29.785,0
1539623629.949,29.297,35.645,36.621,23.438,38.574,0
1539623629.953,26.855,36.621,39.062,19.531,65.430,0
1539623629.957,18.066,32.715,36.621,21.973,22.949,0
1539623629.961,18.555,30.273,33.203,27.832,-6.348,0
1539623629.965,31.738,38.086,34.180,28.809,4.395,0
1539623629.969,24.902,38.086,39.551,21.973,22.461,0
1539623629.973,14.160,34.668,41.016,18.066,-33.203,0
1539623629.977,20.508,38.086,39.551,18.066,-2.441,0
1539623629.980,21.484,36.133,34.668,25.879,31.738,0
1539623629.984,16.113,35.156,35.156,31.250,10.742,0
1539623629.988,22.949,38.574,36.133,29.297,6.348,0
1539623629.992,23.438,37.598,36.133,22.949,-16.113,0
1539623629.996,22.461,37.598,34.668,25.391,83.008,0
1539623630.000,20.996,32.715,31.250,26.855,102.051,0
1539623630.004,22.461,29.297,33.691,22.461,53.223,0
1539623630.008,28.320,34.668,37.109,28.809,58.105,0
1539623630.012,18.555,37.109,41.504,37.598,61.035,0
1539623630.016,15.625,34.668,43.945,37.109,49.316,0
1539623630.020,25.879,35.156,44.922,29.785,18.555,0
1539623630.023,30.762,40.039,46.875,42.480,-4.883,0
1539623630.027,35.156,41.504,42.969,50.293,18.066,0
1539623630.031,38.086,41.992,40.527,39.062,31.738,0
1539623630.035,38.574,39.551,41.992,45.410,7.324,0
1539623630.039,45.410,35.645,35.645,42.480,7.324,0
1539623630.043,46.387,35.156,33.691,32.227,43.457,0
1539623630.047,28.809,31.250,35.156,29.785,86.426,0
1539623630.051,16.602,33.203,32.715,29.785,87.402,0
1539623630.055,23.926,36.621,34.668,29.785,-3.906,0
1539623630.059,23.926,35.156,32.227,29.785,-5.859,0
1539623630.063,19.043,34.668,30.273,35.156,38.574,0
1539623630.066,19.531,36.621,33.691,36.133,49.805,0
1539623630.070,20.020,36.133,35.645,27.344,57.129,0
1539623630.074,21.484,36.133,41.016,28.320,54.199,0
1539623630.078,31.738,38.574,41.504,37.109,59.570,0
1539623630.082,30.273,41.992,33.691,34.180,-1.953,0
1539623630.086,21.484,41.504,37.109,29.785,-9.766,0
1539623630.090,23.438,36.621,42.480,23.926,59.082,0
1539623630.094,25.879,32.715,38.086,20.020,22.949,0
1539623630.098,27.832,35.156,34.668,25.391,20.508,0
1539623630.102,19.531,38.086,32.715,24.902,15.137,0
1539623630.105,16.113,36.133,34.180,16.602,-3.906,0
1539623630.109,18.555,36.133,34.668,20.996,22.949,0
1539623630.113,22.461,41.016,31.250,30.273,84.961,0
1539623630.117,42.480,45.898,30.273,28.320,83.008,0
1539623630.121,40.039,41.016,37.109,23.438,16.602,0
1539623630.125,17.090,37.109,39.062,20.996,19.531,0
1539623630.129,12.207,36.133,35.645,29.297,-2.441,0
1539623630.133,16.113,31.250,33.691,26.367,19.043,0
1539623630.137,24.414,32.715,38.574,23.438,62.012,0
1539623630.141,31.250,33.691,41.504,22.461,66.895,0
1539623630.145,32.227,41.992,45.898,32.227,29.297,0
1539623630.148,27.832,41.016,53.711,31.738,6.348,0
1539623630.152,15.625,27.344,49.805,23.438,12.207,0
1539623630.156,23.926,30.273,47.852,33.691,49.316,0
1539623630.160,29.785,37.598,46.875,29.785,43.457,0
1539623630.164,21.973,39.551,41.016,24.902,10.742,0
1539623630.168,24.414,42.969,44.434,20.996,52.734,0
1539623630.172,32.227,44.434,46.875,14.648,40.039,0
1539623630.176,28.320,44.922,41.504,18.555,68.359,0
1539623630.180,27.344,45.898,36.621,23.926,49.805,0
1539623630.184,29.297,42.969,33.691,16.113,7.812,0
1539623630.188,21.484,41.992,36.133,16.602,37.598,0
1539623630.191,22.461,45.898,43.945,25.391,10.742,0
1539623630.195,28.809,42.480,42.969,19.043,34.180,0
1539623630.199,23.926,38.086,36.133,20.020,66.895,0
1539623630.203,21.973,40.039,42.480,22.949,19.043,0
1539623630.207,20.020,36.621,47.852,21.973,36.133,0
1539623630.211,14.160,36.133,41.016,20.996,36.133,0
1539623630.215,26.855,38.086,32.715,22.949,3.906,0
1539623630.219,31.250,37.109,36.133,29.785,92.773,0
1539623630.223,26.855,40.039,38.574,32.227,134.766,0
1539623630.227,30.273,39.062,34.668,26.367,100.098,0
1539623630.230,34.668,30.762,31.738,24.414,100.098,0
1539623630.234,24.902,35.645,36.621,32.715,50.293,0
1539623630.238,16.602,39.062,39.062,21.973,37.109,0
1539623630.242,20.508,34.668,31.250,12.695,68.848,0
1539623630.246,16.113,33.203,30.273,17.578,35.156,0
1539623630.250,22.461,37.598,41.016,20.996,81.543,0
1539623630.254,36.621,42.480,42.480,23.926,65.918,0
1539623630.258,31.250,43.457,29.785,23.438,32.715,0
1539623630.262,27.832,45.898,29.297,23.438,15.137,0
1539623630.266,31.738,43.945,37.109,32.715,17.578,0
1539623630.270,30.273,39.551,38.086,33.691,33.203,0
1539623630.273,35.156,39.551,38.574,24.902,46.875,0
1539623630.277,29.297,37.598,37.109,24.902,75.684,0
1539623630.281,24.902,36.133,36.133,26.855,43.945,0
1539623630.285,30.762,35.156,35.645,15.137,-0.977,0
1539623630.289,19.043,29.785,37.598,10.254,-0.977,0
1539623630.293,13.672,35.156,35.156,24.414,18.555,0
1539623630.297,20.508,37.109,26.855,21.484,-25.391,0
1539623630.301,23.926,35.645,22.461,13.184,-39.062,0
1539623630.305,21.484,36.621,23.926,19.043,54.688,0
1539623630.309,14.648,36.621,25.391,17.578,62.012,0
1539623630.313,13.184,36.621,25.391,14.160,19.531,0
1539623630.316,8.789,33.203,25.879,15.625,54.688,0
1539623630.320,8.789,31.738,25.391,14.648,60.547,0
1539623630.324,30.762,37.598,24.902,13.184,22.461,0
1539623630.328,24.902,41.016,32.227,8.301,38.086,0
1539623630.332,1.953,37.598,34.668,1.953,33.691,0
1539623630.336,14.648,33.691,27.344,9.277,11.719,0
1539623630.340,20.020,37.598,27.344,11.230,57.617,0
1539623630.344,15.625,42.480,24.902,6.348,55.664,0
1539623630.348,15.137,40.039,20.996,14.160,-3.906,0
1539623630.352,18.066,38.574,22.949,18.066,15.625,0
1539623630.355,19.043,37.598,27.344,15.625,83.496,0
1539623630.359,12.695,38.086,28.809,17.090,80.078,0
1539623630.363,19.531,34.668,26.855,21.484,25.391,0
1539623630.367,24.902,29.785,26.367,19.043,24.902,0
1539623630.371,23.926,39.062,27.344,23.438,47.852,0
1539623630.375,8.789,42.480,28.320,19.043,32.715,0
1539623630.379,2.441,39.551,29.785,11.719,11.719,0
1539623630.383,12.695,41.504,33.203,10.742,-15.137,0
1539623630.387,22.461,40.527,31.738,10.254,-36.133,0
1539623630.391,22.949,38.086,31.250,22.461,-24.414,0
1539623630.395,13.184,39.062,29.297,22.461,28.809,0
1539623630.398,25.391,42.969,28.320,26.367,34.668,0
1539623630.402,27.832,43.457,34.668,22.949,13.184,0
1539623630.406,13.184,42.480,32.715,13.184,41.016,0
1539623630.410,18.555,43.945,28.320,24.902,20.508,0
1539623630.414,29.785,45.410,33.691,27.832,4.395,0
1539623630.418,33.691,43.457,40.039,25.391,14.160,0
1539623630.422,24.902,43.457,33.691,29.785,31.738,0
1539623630.426,28.809,48.340,34.180,33.203,48.828,0
1539623630.430,25.879,46.875,41.016,32.227,53.711,0
1539623630.434,28.320,44.434,38.086,28.320,77.148,0
1539623630.438,32.227,46.875,38.574,26.855,14.160,0
1539623630.441,25.391,46.875,34.668,28.809,6.836,0
1539623630.445,28.809,44.922,27.832,29.297,31.738,0
1539623630.449,30.273,42.480,19.531,27.832,11.230,0
1539623630.453,28.809,39.551,16.602,22.461,45.410,0
1539623630.457,27.832,38.574,25.391,22.461,73.242,0
1539623630.461,33.691,41.504,31.250,29.785,7.812,0
1539623630.465,32.227,43.945,29.297,28.809,12.207,0
1539623630.469,21.484,42.480,26.367,26.367,73.730,0
1539623630.473,24.414,42.480,28.320,29.297,93.750,0
1539623630.477,32.227,44.434,29.785,30.762,52.246,0
1539623630.480,24.414,43.457,26.367,26.855,28.320,0
1539623630.484,11.719,43.457,22.949,22.949,86.914,1
1539623630.488,16.602,45.410,27.344,23.438,47.852,0
1539623630.492,20.020,41.992,28.809,26.855,2.930,0
1539623630.496,19.531,42.480,31.250,20.020,57.617,0
1539623630.500,34.668,44.922,33.691,21.973,42.969,0
1539623630.504,41.504,43.457,30.273,29.785,7.324,0
1539623630.508,26.855,44.434,33.203,22.949,-29.297,0
1539623630.512,19.043,41.992,36.133,20.508,-36.133,0
1539623630.516,19.043,41.992,32.227,24.902,-43.945,0
1539623630.520,23.438,47.363,32.227,27.344,-0.977,0
1539623630.523,27.832,43.945,41.504,27.832,9.766,0
1539623630.527,31.250,39.551,37.598,27.832,58.105,0
1539623630.531,29.297,44.434,32.715,26.855,86.426,0
1539623630.535,32.227,45.410,38.086,22.949,29.297,0
1539623630.539,38.086,44.434,39.551,29.297,7.324,0
1539623630.543,25.879,41.992,41.504,33.691,-32.715,0
1539623630.547,19.531,42.480,42.969,27.832,18.555,0
1539623630.551,30.762,44.434,42.969,30.273,41.992,0
1539623630.555,30.762,41.992,38.574,25.879,-29.785,0
1539623630.559,21.973,40.527,33.691,17.578,-27.832,0
1539623630.563,22.461,42.969,37.598,21.484,-29.297,0
1539623630.566,30.762,45.410,46.875,27.344,-20.020,0
1539623630.570,31.738,42.480,48.828,22.461,23.438,0
1539623630.574,18.555,40.039,41.504,18.066,61.523,0
1539623630.578,24.902,41.992,42.969,30.273,5.371,0
1539623630.582,32.715,39.062,40.527,29.785,21.973,0
1539623630.586,22.949,31.250,30.762,22.461,51.758,0
1539623630.590,16.113,33.691,31.250,26.367,15.625,0
1539623630.594,15.625,40.527,36.133,27.832,28.320,0
1539623630.598,20.508,38.574,33.203,26.855,34.668,0
1539623630.602,29.297,36.621,25.391,17.578,14.648,0
1539623630.605,23.926,34.668,20.508,19.043,37.109,0
1539623630.609,29.297,35.156,26.367,25.391,56.641,0
1539623630.613,31.250,38.086,29.785,19.043,20.996,0
1539623630.617,18.555,35.645,23.926,16.602,5.371,0
1539623630.621,20.508,34.668,26.855,21.484,47.852,0
1539623630.625,25.879,40.039,29.785,24.414,-0.488,0
1539623630.629,20.020,39.551,22.949,22.949,-24.414,0
1539623630.633,19.043,35.156,22.461,23.926,-4.395,0
1539623630.637,34.668,37.109,28.809,32.227,-1.465,0
1539623630.641,35.156,38.086,30.273,37.598,15.625,0
1539623630.645,34.180,36.621,32.715,39.551,14.648,0
1539623630.648,35.645,32.715,32.227,40.527,24.902,0
1539623630.652,31.250,28.809,33.691,41.504,76.660,0
1539623630.656,35.645,31.738,38.574,41.504,117.676,0
1539623630.660,36.133,33.691,39.062,37.109,68.359,0
1539623630.664,29.785,32.715,37.598,39.062,-3.418,0
1539623630.668,31.738,32.227,40.039,38.086,32.227,0
1539623630.672,35.645,32.715,40.527,32.715,47.852,0
1539623630.676,27.344,35.645,35.645,30.273,52.246,0
1539623630.680,28.320,40.527,27.344,26.367,45.410,0
1539623630.684,42.480,43.945,26.367,28.809,29.785,0
1539623630.688,41.016,44.434,29.785,33.691,13.672,0
1539623630.691,42.969,43.945,33.203,37.598,22.949,0
1539623630.695,41.992,37.598,33.691,27.832,53.223,0
1539623630.699,32.715,35.645,35.156,21.973,2.441,0
1539623630.703,29.785,37.109,41.992,20.508,-8.789,0
1539623630.707,15.625,34.180,35.156,8.301,47.852,0
1539623630.711,20.996,34.668,31.250,7.812,33.691,0
1539623630.715,19.043,36.621,32.227,14.160,30.273,0
1539623630.719,16.602,38.574,34.180,15.625,55.176,0
1539623630.723,20.508,36.621,40.527,11.719,33.203,0
1539623630.727,15.625,34.668,38.086,13.672,21.484,0
1539623630.730,13.672,36.621,35.645,17.090,-24.414,0
1539623630.734,13.672,38.086,41.504,17.090,-24.414,0
1539623630.738,16.113,39.551,46.875,19.531,58.594,0
1539623630.742,18.555,38.086,45.410,18.555,81.055,0
1539623630.746,24.902,36.133,45.898,18.555,39.551,0
1539623630.750,19.531,36.621,40.039,15.625,43.457,0
1539623630.754,8.789,35.645,32.227,12.695,23.438,0
1539623630.758,17.090,39.551,31.738,23.438,0.977,0
1539623630.762,24.902,41.504,33.691,24.414,-17.090,0
1539623630.766,35.645,43.945,35.156,20.020,28.320,0
1539623630.770,40.527,47.852,35.645,28.320,-2.930,0
1539623630.773,31.738,46.387,34.668,32.715,-48.828,0
1539623630.777,22.461,39.551,37.598,31.250,27.832,0
1539623630.781,24.902,37.109,38.086,23.926,56.152,0
1539623630.785,39.062,36.621,37.598,20.020,13.184,0
1539623630.789,39.551,34.668,38.574,25.391,47.363,0
1539623630.793,30.762,38.574,32.715,22.461,82.520,0
1539623630.797,20.996,37.598,26.855,17.578,79.102,0
1539623630.801,24.902,37.109,30.273,23.926,106.934,0
1539623630.805,20.508,36.133,33.203,22.949,77.637,0
1539623630.809,19.043,30.273,34.180,20.996,41.992,0
1539623630.813,25.391,29.297,34.180,22.461,42.480,0
1539623630.816,18.555,34.180,31.738,32.715,3.418,0
1539623630.820,20.996,37.598,34.668,37.598,14.648,0
1539623630.824,20.996,38.574,35.645,38.086,36.133,0
1539623630.828,21.973,39.551,35.645,34.668,10.254,0
1539623630.832,29.785,39.551,41.504,24.414,35.645,0
1539623630.836,37.109,43.457,44.922,34.180,24.414,0
1539623630.840,31.738,42.480,35.645,35.156,43.945,0
1539623630.844,20.020,39.062,30.273,23.438,14.160,0
1539623630.848,25.879,39.062,37.598,28.809,32.715,0
1539623630.852,30.762,36.133,41.992,25.391,123.047,0
1539623630.855,32.227,37.598,35.645,16.602,99.609,0
1539623630.859,33.691,45.410,33.203,34.668,56.641,0
1539623630.863,42.969,47.852,41.992,43.945,21.973,0
1539623630.867,49.805,42.480,40.039,37.598,88.867,0
1539623630.871,46.387,41.016,35.156,31.738,77.637,0
1539623630.875,41.992,39.062,38.086,28.809,31.250,0
1539623630.879,45.898,37.109,39.551,37.109,44.434,0
1539623630.883,49.805,39.551,39.062,40.527,10.254,0
1539623630.887,29.785,38.574,32.715,38.086,46.875,0
1539623630.891,24.414,37.109,35.156,41.016,115.234,0
1539623630.895,38.574,41.016,41.504,46.387,84.473,0
1539623630.898,42.480,40.527,38.086,46.875,14.160,0
1539623630.902,40.527,37.109,36.133,41.992,-23.926,0
1539623630.906,48.828,37.598,40.527,46.387,-9.277,0
1539623630.910,51.270,39.062,43.945,53.711,0.488,0
1539623630.914,42.480,35.645,42.969,45.898,7.812,0
1539623630.918,42.969,38.086,40.527,41.504,37.598,0
1539623630.922,41.504,41.016,37.109,44.434,5.859,0
1539623630.926,53.711,44.922,36.621,43.457,-14.160,0
1539623630.930,54.688,51.270,37.109,44.434,25.879,0
1539623630.934,34.668,43.457,39.062,39.062,62.500,0
1539623630.938,33.203,36.133,41.016,29.297,74.707,0
1539623630.941,42.480,40.039,43.945,22.461,84.473,0
1539623630.945,36.621,41.016,41.504,23.926,69.336,0
1539623630.949,24.902,38.086,38.086,26.855,38.574,0
1539623630.953,30.273,38.086,42.969,27.344,60.547,0
1539623630.957,25.879,39.551,44.434,22.949,93.750,0
1539623630.961,15.137,39.062,43.457,22.461,41.016,0
1539623630.965,24.414,39.062,41.504,24.414,44.922,0
1539623630.969,28.809,43.457,38.574,21.973,20.508,0
1539623630.973,21.484,43.457,41.504,26.855,-18.066,0
1539623630.977,12.207,41.504,38.086,26.855,6.348,0
1539623630.980,20.020,45.898,31.738,24.902,-5.859,0
1539623630.984,29.297,44.434,35.645,28.809,43.945,0
1539623630.988,39.551,43.457,41.016,33.691,51.270,0
1539623630.992,33.691,36.621,40.039,29.297,29.297,0
1539623630.996,29.785,32.715,40.039,21.973,37.109,0
1539623631.000,29.785,36.621,41.016,24.902,58.105,0
1539623631.004,23.438,36.133,38.574,27.344,71.289,0
1539623631.008,27.344,34.668,34.668,14.648,2.441,0
1539623631.012,25.391,35.156,30.762,15.625,0.000,0
1539623631.016,25.391,34.180,30.762,25.391,40.527,0
1539623631.020,22.949,35.645,32.227,24.902,34.180,0
1539623631.023,20.020,41.016,33.691,34.668,0.977,0
1539623631.027,24.414,40.527,33.203,32.715,-41.504,0
1539623631.031,31.738,41.016,39.062,24.902,12.695,0
1539623631.035,36.133,40.039,37.109,28.809,81.055,0
1539623631.039,20.508,33.203,33.203,20.996,55.176,0
1539623631.043,13.184,34.180,41.016,21.973,20.508,0
1539623631.047,24.414,39.062,41.016,32.227,39.062,0
1539623631.051,31.738,36.621,41.504,31.250,31.738,0
1539623631.055,27.832,35.645,38.574,31.250,25.391,0
1539623631.059,23.438,43.457,34.668,29.297,59.570,0
1539623631.063,27.344,47.363,39.551,19.531,50.781,0
1539623631.066,29.297,43.457,39.062,19.043,65.430,0
1539623631.070,23.438,38.086,35.156,26.855,47.363,0
1539623631.074,24.414,36.133,38.574,23.926,14.648,0
1539623631.078,32.227,37.598,40.527,20.508,41.504,0
1539623631.082,28.320,35.156,34.180,25.391,82.031,0
1539623631.086,28.320,36.133,35.156,35.645,82.031,0
1539623631.090,35.645,38.574,43.457,37.109,23.438,0
1539623631.094,33.691,37.109,44.922,28.809,64.941,0
1539623631.098,30.762,35.645,35.156,23.926,73.242,0
1539623631.102,31.250,35.645,28.809,32.227,77.148,0
1539623631.105,37.598,36.621,35.156,37.598,70.801,0
1539623631.109,34.180,31.738,36.621,42.480,49.805,0
1539623631.113,33.203,29.785,33.691,41.992,46.387,0
1539623631.117,34.180,34.180,39.551,43.945,59.570,0
1539623631.121,19.531,37.598,39.062,43.457,100.098,0
1539623631.125,15.625,40.527,36.133,37.109,-16.113,0
1539623631.129,21.973,40.039,35.156,38.574,-29.785,0
1539623631.133,28.320,38.574,32.227,35.645,46.875,0
1539623631.137,28.320,39.062,35.645,28.809,25.879,0
1539623631.141,22.949,40.039,38.574,19.043,50.293,0
1539623631.145,20.508,38.574,31.738,16.602,-9.277,0
1539623631.148,26.855,40.527,28.809,24.414,-39.062,0
1539623631.152,28.320,43.945,35.156,25.879,3.418,0
1539623631.156,19.043,36.621,34.180,13.672,19.043,0
1539623631.160,11.719,37.598,29.785,12.207,18.555,0
1539623631.164,12.695,39.551,27.832,15.137,18.555,0
1539623631.168,13.184,35.156,33.203,11.230,33.691,0
1539623631.172,12.695,32.227,31.250,3.418,13.184,0
1539623631.176,22.461,39.551,24.902,9.277,27.344,0
1539623631.180,23.926,44.922,31.738,13.672,79.102,0
1539623631.184,14.648,39.551,34.668,9.277,49.805,0
1539623631.188,12.695,39.062,37.598,16.113,37.109,0
1539623631.191,9.766,42.969,41.016,25.879,38.574,0
1539623631.195,13.672,39.551,34.668,21.973,18.066,0
1539623631.199,21.973,34.668,31.250,20.020,9.277,0
1539623631.203,15.137,38.574,26.367,17.578,-3.418,0
1539623631.207,15.625,41.992,26.855,11.230,21.484,0
1539623631.211,28.320,44.922,37.109,16.113,52.734,0
1539623631.215,34.180,44.922,36.621,15.625,78.613,0
1539623631.219,21.484,41.504,31.250,15.625,72.266,0
1539623631.223,21.484,40.527,33.203,22.949,29.297,0
1539623631.227,31.250,38.574,32.227,20.020,16.113,0
1539623631.230,36.133,42.969,30.762,22.949,35.156,0
1539623631.234,38.086,43.945,31.250,32.227,24.414,0
1539623631.238,41.992,41.504,31.738,33.691,8.789,0
1539623631.242,39.551,41.016,28.320,35.645,32.227,0
1539623631.246,36.621,41.016,26.855,39.062,40.527,0
1539623631.250,36.133,39.551,30.273,29.785,50.781,0
1539623631.254,38.086,38.574,30.273,22.949,43.945,0
1539623631.258,39.551,41.016,27.832,22.949,65.918,0
1539623631.262,26.367,38.086,29.297,26.855,79.102,0
1539623631.266,17.578,36.133,29.297,27.832,52.734,0
1539623631.270,34.180,44.922,30.273,29.785,17.578,0
1539623631.273,30.273,46.387,33.691,27.344,-6.836,0
1539623631.277,22.949,43.945,26.367,17.090,69.824,0
1539623631.281,30.273,46.387,24.902,25.391,67.871,0
1539623631.285,26.367,45.410,37.598,24.902,32.227,0
1539623631.289,27.344,42.480,38.086,20.020,54.199,0
1539623631.293,36.621,36.621,26.367,19.531,30.762,0
1539623631.297,33.203,39.062,30.273,21.484,28.809,0
1539623631.301,25.391,45.898,41.016,34.180,62.988,0
1539623631.305,22.949,45.410,41.016,34.668,58.105,0
1539623631.309,27.344,40.039,39.062,28.320,21.484,0
1539623631.313,37.109,39.062,41.016,36.621,9.277,0
1539623631.316,38.086,39.551,46.387,34.668,32.715,0
1539623631.320,31.250,39.062,46.387,25.391,10.254,0
1539623631.324,28.320,40.039,41.504,24.902,-12.695,0
1539623631.328,28.809,41.016,39.551,22.461,60.547,0
1539623631.332,24.902,39.551,36.621,27.344,91.309,0
1539623631.336,26.367,40.039,34.180,30.273,80.566,0
1539623631.340,24.902,39.062,34.180,26.367,74.219,0
1539623631.344,23.926,34.180,41.016,25.391,78.613,0
1539623631.348,31.738,36.621,42.969,29.785,80.078,0
1539623631.352,25.879,40.039,37.109,30.273,65.918,0
1539623631.355,14.160,40.527,37.109,22.461,50.781,0
1539623631.359,29.785,45.898,42.480,34.668,28.320,0
1539623631.363,33.203,43.945,40.039,34.180,42.480,0
1539623631.367,16.113,36.621,25.879,16.602,48.828,0
1539623631.371,16.113,37.598,23.926,15.625,64.941,0
1539623631.375,21.484,41.504,33.203,16.113,65.430,0
1539623631.379,20.996,40.039,32.227,16.602,37.598,0
1539623631.383,11.719,34.668,29.785,16.113,33.691,0
1539623631.387,11.230,33.203,37.109,25.879,62.500,0
1539623631.391,19.531,30.762,32.715,27.344,98.633,0
1539623631.395,20.996,30.273,28.809,20.508,73.242,0
1539623631.398,16.113,29.785,29.785,12.695,44.434,0
1539623631.402,9.277,32.227,27.832,7.324,31.250,0
1539623631.406,2.441,35.645,39.062,12.695,13.672,0
1539623631.410,9.277,34.668,40.039,3.418,-20.020,0
1539623631.414,16.113,33.691,24.902,4.395,-14.160,0
1539623631.418,13.184,35.156,25.879,22.949,8.301,0
1539623631.422,5.859,33.691,30.762,25.879,4.395,0
1539623631.426,11.719,32.715,32.715,22.461,43.457,0
1539623631.430,12.207,36.133,33.691,15.137,49.805,0
1539623631.434,14.648,37.598,30.273,18.066,73.730,0
1539623631.438,23.926,38.574,30.273,28.320,59.082,0
1539623631.441,24.414,35.645,31.250,23.926,26.855,0
1539623631.445,28.809,35.645,29.297,15.625,34.180,0
1539623631.449,30.273,38.574,31.738,15.625,-5.371,0
1539623631.453,23.438,38.574,34.668,20.020,-14.648,0
1539623631.457,22.461,38.574,32.227,16.602,47.852,0
1539623631.461,26.367,37.109,25.879,25.391,38.574,0
1539623631.465,23.926,41.504,27.832,32.227,28.320,0
1539623631.469,24.902,44.434,29.297,25.879,26.367,0
1539623631.473,28.320,44.922,30.762,23.926,39.062,0
1539623631.477,38.086,48.340,34.668,23.926,74.219,0
1539623631.480,43.945,46.387,35.645,33.691,24.414,0
1539623631.484,35.645,42.480,37.109,32.227,6.836,0
1539623631.488,31.738,40.527,31.738,27.832,59.570,0
1539623631.492,35.645,38.574,28.809,29.785,37.109,0
1539623631.496,34.668,39.551,37.598,22.461,34.668,0
1539623631.500,30.762,38.574,40.527,18.066,29.785,0
1539623631.504,22.461,37.598,29.785,21.484,-9.277,0
1539623631.508,24.902,40.527,29.297,24.902,32.715,0
1539623631.512,25.391,40.039,31.250,20.020,74.219,0
1539623631.516,18.555,40.527,30.762,21.973,31.738,0
1539623631.520,19.531,42.480,27.832,21.973,5.859,0
1539623631.523,21.973,42.480,28.809,27.344,27.832,0
1539623631.527,20.996,40.527,35.645,30.762,-1.465,0
1539623631.531,12.207,36.133,33.691,22.461,0.000,0
1539623631.535,10.254,33.691,34.668,17.090,53.711,0
1539623631.539,20.996,36.621,34.180,20.020,40.527,0
1539623631.543,19.043,37.109,29.785,20.508,18.066,0
1539623631.547,15.625,30.273,25.391,12.695,41.504,0
1539623631.551,26.367,30.273,29.297,13.672,-4.395,0
1539623631.555,20.996,32.227,34.668,17.578,30.762,0
1539623631.559,10.742,31.250,31.738,13.672,66.406,0
1539623631.563,12.207,35.156,29.785,16.113,-22.461,0
1539623631.566,20.508,35.645,28.809,18.066,-5.371,0
1539623631.570,19.531,38.086,32.715,13.672,18.066,0
1539623631.574,5.859,42.480,33.691,16.113,-36.621,0
1539623631.578,4.395,39.551,31.250,6.348,18.555,0
1539623631.582,18.555,33.203,32.715,3.418,46.387,0
1539623631.586,18.066,33.203,39.551,9.277,66.406,0
1539623631.590,4.883,37.598,39.551,7.324,113.281,0
1539623631.594,4.395,38.086,30.762,6.836,73.242,0
1539623631.598,19.043,36.621,33.691,12.695,44.434,0
1539623631.602,18.066,34.668,36.621,21.973,28.809,0
1539623631.605,5.371,34.668,36.133,22.461,40.039,0
1539623631.609,3.906,34.180,36.133,22.949,46.387,0
1539623631.613,5.371,34.180,29.785,34.180,12.207,0
1539623631.617,15.137,36.621,28.809,30.273,-12.207,0
1539623631.621,23.926,37.598,31.250,20.508,63.477,0
1539623631.625,21.973,38.086,32.227,20.508,62.500,0
1539623631.629,26.367,38.086,32.715,26.855,10.742,0
1539623631.633,19.043,37.109,30.762,25.391,24.902,0
1539623631.637,15.625,39.062,32.715,26.855,19.043,0
1539623631.641,30.762,40.039,33.203,31.250,29.785,0
1539623631.645,34.180,39.062,36.621,37.598,118.164,0
1539623631.648,32.227,40.527,36.621,42.480,52.734,0
1539623631.652,24.414,37.109,33.203,28.809,-14.648,0
1539623631.656,25.879,35.156,37.109,23.926,20.996,0
1539623631.660,33.203,35.645,37.109,34.668,103.516,0
1539623631.664,35.645,36.621,36.621,37.598,126.465,0
1539623631.668,28.320,38.574,39.551,28.809,-21.973,0
1539623631.672,27.832,36.621,38.574,22.949,-48.340,0
1539623631.676,28.320,36.133,41.992,28.809,18.066,0
1539623631.680,13.184,36.133,34.668,19.531,53.711,0
1539623631.684,10.254,39.062,24.414,16.602,46.387,0
1539623631.688,20.508,40.527,30.273,24.902,30.273,0
1539623631.691,27.344,38.574,38.086,25.879,17.578,0
1539623631.695,37.598,39.551,41.016,30.273,31.738,0
1539623631.699,33.691,40.039,36.133,36.621,51.270,0
1539623631.703,25.391,40.039,37.109,34.180,33.691,0
1539623631.707,35.156,42.969,41.992,25.391,24.414,0
1539623631.711,29.297,39.062,45.410,24.902,65.430,0
1539623631.715,27.832,35.156,45.410,29.297,101.562,0
1539623631.719,35.645,40.039,39.062,37.109,54.688,0
1539623631.723,37.109,40.039,40.527,31.738,52.246,0
1539623631.727,35.156,37.598,39.062,28.320,71.777,0
1539623631.730,30.762,37.598,34.668,31.250,40.039,0
1539623631.734,30.762,40.527,38.086,27.344,27.344,0
1539623631.738,27.344,42.969,43.457,21.484,39.551,1
1539623631.742,20.996,40.039,42.480,20.996,24.414,0
1539623631.746,19.043,33.691,37.598,27.344,5.859,0
1539623631.750,23.438,31.738,35.645,23.438,28.320,0
1539623631.754,30.273,36.133,34.668,25.879,26.367,0
1539623631.758,19.043,38.086,29.785,27.832,-31.250,0
1539623631.762,10.254,38.574,30.762,26.367,1.465,0
1539623631.766,20.996,36.133,33.691,26.855,72.266,0
1539623631.770,27.832,34.668,35.645,22.461,62.012,0
1539623631.773,27.344,33.691,39.062,27.344,18.066,0
1539623631.777,30.762,37.109,38.574,35.156,5.859,0
1539623631.781,31.250,39.551,36.133,33.203,20.996,0
1539623631.785,26.855,36.621,35.156,23.438,37.598,0
1539623631.789,27.344,38.086,33.691,22.949,44.434,0
1539623631.793,40.039,40.039,38.574,35.156,78.613,0
1539623631.797,34.180,40.039,41.016,37.598,103.516,0
1539623631.801,29.297,40.039,37.109,40.039,63.477,0
1539623631.805,38.574,42.480,39.551,46.875,12.695,0
1539623631.809,32.715,39.062,45.410,36.621,27.832,0
1539623631.813,30.273,35.156,41.016,35.645,69.824,0
1539623631.816,39.551,37.109,32.227,44.434,99.609,0
1539623631.820,41.504,39.551,36.133,42.480,52.734,0
1539623631.824,36.621,45.410,36.621,36.133,18.555,0
1539623631.828,34.180,47.852,34.180,30.762,44.434,0
1539623631.832,26.855,38.574,37.109,31.250,68.359,0
1539623631.836,25.391,36.133,41.992,37.109,44.434,0
1539623631.840,27.832,37.109,37.598,33.203,20.996,0
1539623631.844,19.531,36.621,26.367,22.461,36.621,0
1539623631.848,21.973,40.039,25.391,22.949,47.363,0
1539623631.852,20.996,40.527,26.855,32.227,34.668,0
1539623631.855,19.043,37.598,25.879,23.438,22.461,0
1539623631.859,22.461,35.156,33.691,16.113,73.242,0
1539623631.863,22.949,39.062,34.668,22.461,75.684,0
1539623631.867,18.066,39.551,28.809,20.508,56.641,0
1539623631.871,9.277,36.621,33.203,13.672,20.508,0
1539623631.875,6.348,37.109,34.668,11.230,40.039,0
1539623631.879,9.277,37.598,35.156,20.996,47.852,0
1539623631.883,10.742,38.574,36.621,29.785,27.832,0
1539623631.887,8.301,35.156,38.086,25.391,-7.812,0
1539623631.891,11.230,31.738,33.203,18.555,-9.277,0
1539623631.895,15.137,35.156,31.250,20.508,55.664,0
1539623631.898,15.625,34.668,36.621,24.414,64.941,0
1539623631.902,23.438,37.109,35.645,26.367,-0.977,0
1539623631.906,29.297,43.945,35.645,28.320,7.324,0
1539623631.910,26.855,45.410,38.086,26.367,8.789,0
1539623631.914,21.484,40.527,37.598,21.484,28.320,0
1539623631.918,24.414,39.062,39.062,21.973,-6.348,0
1539623631.922,33.691,39.551,35.156,18.066,-34.180,0
1539623631.926,39.551,42.969,31.250,20.508,8.789,0
1539623631.930,28.320,46.387,36.621,26.367,14.648,0
1539623631.934,14.160,47.363,30.762,28.809,29.785,0
1539623631.938,26.367,48.340,25.879,29.785,63.965,0
1539623631.941,35.645,50.293,30.273,28.809,40.527,0
1539623631.945,33.691,46.387,31.250,24.414,47.852,0
1539623631.949,35.156,45.898,32.227,19.531,115.723,0
1539623631.953,36.133,51.270,36.133,19.531,120.117,0
1539623631.957,34.180,49.316,38.086,26.855,137.695,0
1539623631.961,35.156,52.246,36.133,30.273,62.988,0
1539623631.965,27.344,48.340,34.180,30.273,34.180,0
1539623631.969,21.973,42.969,31.738,29.785,49.805,0
1539623631.973,28.809,50.293,32.227,36.621,26.855,0
1539623631.977,21.973,47.852,32.227,30.273,21.973,0
1539623631.980,14.648,43.945,26.367,19.043,-13.672,0
1539623631.984,10.742,41.504,23.438,18.066,61.523,0
1539623631.988,20.020,39.062,27.344,23.438,71.289,0
1539623631.992,26.367,40.527,32.715,30.762,44.922,0
1539623631.996,22.949,39.062,33.691,25.879,22.461,0
1539623632.000,26.855,40.039,31.738,27.832,-20.996,0
1539623632.004,23.926,41.504,33.691,32.715,45.410,0
1539623632.008,18.066,40.039,33.203,26.367,60.547,0
1539623632.012,5.859,37.109,29.297,16.113,63.965,0
1539623632.016,18.555,37.598,34.180,20.508,30.762,0
1539623632.020,25.391,39.062,34.180,31.250,-3.418,0
1539623632.023,19.043,38.574,23.926,27.344,23.926,0
1539623632.027,25.879,38.574,28.320,22.949,27.832,0
1539623632.031,32.227,42.480,39.062,30.762,76.172,0
1539623632.035,26.855,43.457,35.156,31.250,85.449,0
1539623632.039,34.668,41.504,31.250,28.809,23.926,0
1539623632.043,40.039,43.945,34.180,25.391,16.602,0
1539623632.047,24.902,41.504,35.645,23.926,29.785,0
1539623632.051,25.879,40.039,37.598,24.902,-9.766,0
1539623632.055,28.320,40.039,36.133,20.020,2.441,0
1539623632.059,21.484,38.574,33.203,13.672,2.930,0
1539623632.063,20.020,41.992,34.180,15.137,-48.340,0
1539623632.066,18.555,39.551,37.109,23.438,-20.020,0
1539623632.070,15.137,33.203,40.527,27.344,-2.441,0
1539623632.074,18.066,33.691,40.527,27.344,-23.438,0
1539623632.078,23.926,37.109,40.527,28.809,-31.738,0
1539623632.082,30.273,38.574,41.992,34.668,-3.906,0
1539623632.086,32.715,41.016,41.992,36.621,-6.348,0
1539623632.090,29.297,39.551,44.922,32.227,-65.918,0
1539623632.094,24.414,38.086,44.922,24.902,-16.602,0
1539623632.098,30.273,39.551,45.410,24.414,21.973,0
1539623632.102,30.273,39.551,45.898,28.809,30.273,0
1539623632.105,16.113,38.086,34.180,27.832,40.039,0
1539623632.109,19.531,37.109,26.367,31.738,-12.695,0
1539623632.113,34.180,40.039,29.297,33.691,70.801,0
1539623632.117,34.668,37.109,30.762,30.762,99.609,0
1539623632.121,34.180,39.062,31.738,25.391,34.668,0
1539623632.125,36.621,45.898,31.738,20.020,20.996,0
1539623632.129,28.320,42.969,31.738,22.461,85.449,0
1539623632.133,28.320,38.574,38.574,31.250,41.504,0
1539623632.137,45.410,39.551,39.551,39.551,-79.102,0
1539623632.141,39.062,40.039,33.691,37.109,-11.230,0
1539623632.145,26.855,42.480,37.598,37.109,-4.395,0
1539623632.148,30.762,41.504,37.109,37.598,-11.719,0
1539623632.152,36.621,39.551,33.691,44.434,35.645,0
1539623632.156,57.617,45.898,33.691,51.270,34.668,0
1539623632.160,51.270,44.922,27.344,41.504,53.711,0
1539623632.164,32.715,37.109,26.855,33.691,52.246,0
1539623632.168,32.715,36.133,31.250,37.109,53.711,0
1539623632.172,35.156,31.738,32.715,39.062,62.500,0
1539623632.176,35.645,33.203,36.133,40.039,29.297,0
1539623632.180,34.668,35.645,33.691,38.086,22.949,0
1539623632.184,32.227,32.227,28.809,38.086,43.457,0
1539623632.188,29.785,29.785,31.250,34.180,23.926,0
1539623632.191,34.668,32.715,31.250,35.156,11.230,0
1539623632.195,31.250,31.738,25.879,27.344,71.289,0
1539623632.199,29.785,32.715,24.902,18.066,100.586,0
1539623632.203,34.668,42.480,21.973,26.367,64.941,0
1539623632.207,16.602,35.645,20.996,24.414,75.195,0
1539623632.211,17.578,30.762,30.273,26.855,53.711,0
1539623632.215,40.039,32.715,38.086,31.738,-5.859,0
1539623632.219,38.086,26.367,37.109,28.320,1.953,0
1539623632.223,23.926,23.438,34.668,28.809,45.410,0
1539623632.227,18.066,26.367,36.133,29.785,54.199,0
1539623632.230,11.230,25.879,39.551,29.785,31.250,0
1539623632.234,10.254,29.785,36.621,28.320,15.137,0
1539623632.238,14.160,34.180,34.668,24.902,18.555,0
1539623632.242,15.625,30.273,36.621,23.926,63.477,0
1539623632.246,22.949,32.227,36.133,25.879,36.133,0
1539623632.250,22.949,33.691,34.668,24.902,2.930,0
1539623632.254,20.508,34.180,29.785,18.555,38.086,0
1539623632.258,25.391,39.062,30.762,22.461,53.711,0
1539623632.262,29.785,35.645,38.574,33.203,41.504,0
1539623632.266,29.297,29.785,36.133,29.297,44.434,0
1539623632.270,31.250,32.227,31.738,27.832,36.133,0
1539623632.273,41.992,39.062,35.645,36.621,24.414,0
1539623632.277,37.598,41.504,35.156,34.668,32.227,0
1539623632.281,28.320,41.504,32.715,28.320,36.133,0
1539623632.285,31.250,44.434,33.691,31.738,53.223,0
1539623632.289,46.387,43.945,36.621,33.691,54.199,0
1539623632.293,48.340,44.434,34.180,32.715,23.926,0
1539623632.297,32.227,44.922,26.367,32.715,49.316,0
1539623632.301,31.738,46.387,25.879,27.832,35.645,0
1539623632.305,33.691,46.387,30.273,25.391,60.547,0
1539623632.309,30.273,41.504,35.156,21.973,85.938,0
1539623632.313,34.180,39.062,35.156,24.414,53.711,0
1539623632.316,30.762,38.086,32.227,30.273,20.996,0
1539623632.320,21.484,37.109,28.320,24.902,42.969,0
1539623632.324,30.273,39.551,27.832,16.602,29.785,0
1539623632.328,28.320,39.551,32.227,18.066,-7.324,0
1539623632.332,16.113,38.086,29.785,20.996,32.715,0
1539623632.336,23.438,41.992,31.738,23.438,36.621,0
1539623632.340,30.762,42.480,34.668,22.949,39.062,0
1539623632.344,26.367,35.645,30.762,19.531,39.062,0
1539623632.348,19.043,37.598,34.180,21.973,24.414,0
1539623632.352,26.855,43.457,38.574,27.832,31.738,0
1539623632.355,33.203,41.504,34.668,27.832,32.227,0
1539623632.359,23.926,38.574,36.621,29.297,86.426,0
1539623632.363,25.879,39.551,40.039,34.180,34.668,0
1539623632.367,30.273,38.086,41.504,34.668,-14.160,0
1539623632.371,36.621,38.574,41.016,30.762,30.762,0
1539623632.375,31.250,41.992,40.527,26.367,56.152,0
1539623632.379,34.180,42.480,44.922,28.809,24.414,0
1539623632.383,32.715,41.992,44.922,26.367,-18.555,0
1539623632.387,23.438,41.016,37.598,26.855,13.184,0
1539623632.391,32.227,41.992,36.133,35.156,39.062,0
1539623632.395,33.203,46.875,39.551,32.227,31.250,0
1539623632.398,35.156,48.828,41.504,29.297,-11.719,0
1539623632.402,30.273,47.363,38.086,29.785,-22.949,0
1539623632.406,28.320,46.875,34.180,29.297,16.113,0
1539623632.410,31.250,41.992,36.133,28.320,48.340,0
1539623632.414,35.156,40.527,36.133,27.344,93.262,0
1539623632.418,28.320,40.527,36.133,30.762,84.473,0
1539623632.422,11.230,39.551,39.062,27.344,41.016,0
1539623632.426,19.531,44.922,39.062,19.531,31.738,0
1539623632.430,22.461,42.480,35.156,25.391,-5.859,0
1539623632.434,10.254,37.598,28.809,26.367,31.250,0
1539623632.438,17.578,43.457,29.297,26.367,20.020,0
1539623632.441,20.996,43.457,37.598,34.180,-8.301,0
1539623632.445,21.973,39.551,41.016,28.320,61.035,0
1539623632.449,22.461,38.086,41.016,28.809,54.199,0
1539623632.453,27.832,40.039,40.039,37.109,29.297,0
1539623632.457,32.715,38.574,37.598,31.738,61.523,0
1539623632.461,36.621,35.156,39.062,28.320,20.996,0
1539623632.465,30.273,37.598,39.551,27.344,-15.137,0
1539623632.469,25.879,39.062,35.645,29.785,34.180,0
1539623632.473,38.086,41.016,37.109,34.180,30.762,0
1539623632.477,27.832,38.086,37.598,25.391,-3.418,0
1539623632.480,16.602,38.086,36.621,20.996,65.430,0
1539623632.484,20.020,37.598,44.922,28.320,75.195,0
1539623632.488,21.484,37.598,47.363,23.926,25.391,0
1539623632.492,11.230,34.180,38.574,21.973,31.738,0
1539623632.496,9.766,32.227,37.598,25.879,27.832,0
1539623632.500,22.461,36.621,41.992,27.832,66.895,0
1539623632.504,20.020,38.086,41.504,29.297,69.824,0
1539623632.508,13.672,38.086,36.621,24.902,11.719,0
1539623632.512,16.602,37.109,31.250,27.344,18.555,0
1539623632.516,19.043,37.109,33.691,26.855,83.496,0
1539623632.520,20.020,35.645,41.016,25.391,99.609,0
1539623632.523,22.949,33.691,36.621,21.973,76.660,0
1539623632.527,26.367,35.156,27.832,23.926,76.660,0
1539623632.531,24.414,36.133,32.715,30.273,105.469,0
1539623632.535,17.578,31.738,37.598,25.879,77.148,0
1539623632.539,12.207,28.809,32.227,17.578,36.133,0
1539623632.543,16.113,35.156,36.133,18.555,33.691,0
1539623632.547,27.832,33.691,41.992,23.926,-50.781,0
1539623632.551,35.645,30.273,39.551,22.461,-29.297,0
1539623632.555,23.926,35.156,37.598,22.949,18.555,0
1539623632.559,20.020,40.039,37.598,25.391,35.156,0
1539623632.563,20.508,40.039,33.203,26.367,23.926,0
1539623632.566,20.020,32.715,32.715,23.926,40.039,0
1539623632.570,19.043,26.855,36.133,16.602,37.598,0
1539623632.574,10.742,28.809,38.086,15.137,51.270,0
1539623632.578,12.695,31.250,37.598,15.625,62.988,0
1539623632.582,12.695,27.832,32.227,17.578,21.484,0
1539623632.586,6.348,27.832,31.250,17.578,2.930,0
1539623632.590,3.418,32.715,32.227,21.484,19.043,0
1539623632.594,15.137,36.133,33.203,20.996,58.594,0
1539623632.598,21.973,31.738,33.203,20.508,39.551,0
1539623632.602,11.230,29.785,31.738,24.902,19.531,0
1539623632.605,6.348,32.227,32.227,21.973,7.324,0
1539623632.609,16.113,29.785,35.156,18.066,5.371,0
1539623632.613,20.020,25.879,42.480,20.508,41.992,0
1539623632.617,8.789,27.832,39.062,25.391,20.020,0
1539623632.621,14.648,30.762,41.504,21.484,-11.230,0
1539623632.625,15.625,31.738,45.410,7.812,-16.602,0
1539623632.629,-0.488,31.738,38.086,1.953,18.066,0
1539623632.633,7.324,35.156,37.598,11.230,59.570,0
1539623632.637,14.160,36.133,41.016,23.926,66.895,0
1539623632.641,16.602,34.668,32.227,24.414,68.359,0
1539623632.645,18.555,35.156,23.438,24.414,16.602,0
1539623632.648,14.160,33.203,30.762,19.531,-40.039,0
1539623632.652,18.555,34.668,34.180,14.160,-31.738,0
1539623632.656,17.090,39.062,29.297,24.902,9.766,0
1539623632.660,18.555,41.016,31.738,21.484,-4.395,0
1539623632.664,25.879,40.527,34.180,20.996,12.695,0
1539623632.668,25.391,37.598,37.598,21.973,63.965,0
1539623632.672,15.137,32.227,39.551,13.184,7.812,0
1539623632.676,21.973,33.691,39.551,18.555,12.207,0
1539623632.680,28.320,40.527,42.480,27.344,44.434,0
1539623632.684,18.555,41.992,40.039,28.809,-20.996,0
1539623632.688,24.414,41.992,38.086,23.926,14.648,0
1539623632.691,23.438,43.945,40.039,22.949,0.000,0
1539623632.695,23.438,42.480,39.551,20.508,-29.785,0
1539623632.699,31.250,39.062,36.133,16.602,-15.137,0
1539623632.703,24.414,39.062,36.133,22.949,21.973,0
1539623632.707,22.461,36.621,38.574,26.367,13.184,0
1539623632.711,18.066,35.156,39.062,25.391,25.391,0
1539623632.715,20.996,38.086,37.598,24.414,144.531,0
1539623632.719,27.344,38.574,33.203,21.484,141.602,0
1539623632.723,29.297,42.969,31.738,22.461,47.363,0
1539623632.727,29.785,44.922,35.156,20.020,46.875,0
1539623632.730,24.902,40.039,37.598,19.531,56.152,0
1539623632.734,26.367,37.598,31.250,19.043,26.367,0
1539623632.738,37.109,39.551,29.297,22.949,6.836,0
1539623632.742,35.645,38.086,30.762,32.715,30.762,0
1539623632.746,24.902,37.109,30.762,35.156,53.711,0
1539623632.750,27.832,41.504,36.133,34.180,-3.906,0
1539623632.754,35.156,43.457,33.691,28.320,-9.277,0
1539623632.758,37.598,41.504,32.227,21.973,61.523,0
1539623632.762,26.367,36.621,33.691,24.414,84.473,0
1539623632.766,28.320,37.109,32.227,25.879,50.781,0
1539623632.770,42.480,40.527,33.691,23.926,64.941,0
1539623632.773,43.457,35.645,37.109,23.926,53.223,0
1539623632.777,30.273,33.203,36.621,19.531,32.227,0
1539623632.781,25.391,37.598,32.227,19.531,74.707,0
1539623632.785,29.785,38.574,31.250,25.391,70.312,0
1539623632.789,28.320,41.992,34.180,28.320,3.906,0
1539623632.793,20.996,39.551,34.668,24.414,-38.574,0
1539623632.797,23.438,36.621,34.180,22.461,-17.578,0
1539623632.801,35.645,41.504,41.992,29.785,41.016,0
1539623632.805,37.598,39.551,43.457,36.621,5.371,0
1539623632.809,25.391,34.668,38.574,35.645,9.277,0
1539623632.813,28.809,34.668,37.598,42.969,78.125,0
1539623632.816,47.363,39.062,39.551,43.457,103.027,0
1539623632.820,42.480,38.574,43.457,30.273,82.031,0
1539623632.824,30.273,33.203,40.039,33.691,80.566,0
1539623632.828,33.691,38.086,39.551,39.551,99.609,0
1539623632.832,25.391,40.527,41.504,29.297,81.055,0
1539623632.836,20.508,34.668,38.086,20.996,43.945,0
1539623632.840,20.020,39.551,33.203,22.461,43.457,0
1539623632.844,27.344,45.898,35.645,26.367,93.262,0
1539623632.848,40.039,45.898,35.156,29.785,82.031,0
1539623632.852,37.109,46.387,31.738,33.203,17.578,0
1539623632.855,32.715,40.527,36.133,29.297,40.527,0
1539623632.859,40.527,36.621,42.969,36.133,94.238,0
1539623632.863,38.574,36.133,45.410,34.668,31.738,0
1539623632.867,18.066,37.598,33.203,9.277,22.949,0
1539623632.871,24.902,43.945,30.762,14.648,1.953,0
1539623632.875,39.062,45.410,33.203,20.996,-7.812,0
1539623632.879,41.504,41.504,33.203,13.672,63.965,0
1539623632.883,29.785,36.621,35.156,6.348,109.375,0
1539623632.887,15.625,36.133,35.156,13.184,71.777,0
1539623632.891,18.066,39.062,39.062,21.973,7.324,0
1539623632.895,20.996,40.039,38.086,20.508,17.090,0
1539623632.898,12.207,36.133,32.715,22.949,62.012,0
1539623632.902,12.207,35.156,36.621,16.602,49.805,0
1539623632.906,24.414,39.551,39.062,20.508,-1.953,0
1539623632.910,26.367,39.062,40.039,23.926,5.859,0
1539623632.914,24.902,37.109,39.551,23.926,34.668,0
1539623632.918,28.320,33.203,42.480,32.227,38.574,0
1539623632.922,29.297,30.273,46.875,36.133,19.043,0
1539623632.926,28.809,34.180,42.969,41.016,-9.766,0
1539623632.930,26.367,33.691,40.039,43.945,39.062,0
1539623632.934,33.203,32.227,41.992,34.668,35.645,0
1539623632.938,24.902,33.691,39.062,28.809,5.371,0
1539623632.941,17.090,36.133,37.109,19.531,70.801,0
1539623632.945,15.625,36.133,42.480,22.949,80.078,0
1539623632.949,16.113,38.574,44.434,28.320,20.020,0
1539623632.953,32.715,39.551,44.434,23.926,-5.859,0
1539623632.957,25.391,36.621,39.551,22.949,13.184,0
1539623632.961,20.508,36.621,34.668,22.461,33.691,0
1539623632.965,37.598,38.574,38.574,25.391,78.125,0
1539623632.969,39.551,36.133,41.992,32.715,110.840,0
1539623632.973,38.086,32.227,42.480,33.691,94.727,0
1539623632.977,43.457,36.621,40.039,39.551,38.086,0
1539623632.980,38.574,38.086,38.574,44.434,-12.207,0
1539623632.984,35.645,39.062,37.109,38.574,1.953,0
1539623632.988,27.344,37.598,35.156,39.551,-6.836,0
1539623632.992,18.555,33.203,28.320,36.621,28.809,0
1539623632.996,21.484,37.109,32.715,36.133,48.828,0
1539623633.000,17.578,36.133,41.992,30.762,2.930,0
1539623633.004,10.742,29.785,41.016,20.996,29.785,0
1539623633.008,10.254,30.762,41.504,20.996,25.879,0
1539623633.012,11.719,31.738,37.598,27.344,31.250,0
1539623633.016,13.184,31.250,38.086,25.879,57.617,0
1539623633.020,13.184,34.180,42.969,20.996,24.902,0
1539623633.023,11.719,36.133,39.062,19.531,26.855,2
1539623633.027,21.973,35.156,39.551,24.902,34.180,0
1539623633.031,31.250,38.574,37.598,29.297,72.266,0
1539623633.035,27.344,41.504,41.016,20.996,104.492,0
1539623633.039,29.297,40.039,45.898,20.508,48.828,0
1539623633.043,34.180,39.551,35.156,32.227,59.570,0
1539623633.047,29.297,34.668,34.180,36.133,89.844,0
1539623633.051,32.715,38.086,38.574,35.156,38.574,0
1539623633.055,33.691,44.434,41.504,41.504,8.789,0
1539623633.059,32.715,41.992,40.527,39.062,-26.855,0
1539623633.063,28.320,40.039,33.203,33.203,-13.184,0
1539623633.066,22.461,42.480,34.180,39.062,15.137,0
1539623633.070,30.762,41.504,35.156,41.016,1.465,0
1539623633.074,41.504,42.480,30.273,45.898,6.836,0
1539623633.078,43.457,45.410,31.250,44.434,20.508,0
1539623633.082,24.902,41.016,36.621,33.203,28.320,0
1539623633.086,26.855,40.039,40.039,37.109,-0.977,0
1539623633.090,36.133,39.062,43.945,33.203,47.852,0
1539623633.094,20.508,34.668,41.016,30.762,63.477,0
1539623633.098,19.043,36.133,38.086,38.574,8.301,0
1539623633.102,19.531,35.156,32.715,21.973,53.223,0
1539623633.105,13.184,34.180,28.320,11.230,64.941,0
1539623633.109,19.531,36.621,24.414,19.531,41.016,0
1539623633.113,25.391,39.551,28.320,22.461,0.000,0
1539623633.117,26.367,39.062,35.645,23.926,34.668,0
1539623633.121,30.273,37.109,34.180,34.180,60.059,0
1539623633.125,32.715,41.992,38.574,39.551,2.441,0
1539623633.129,36.133,45.410,42.969,36.621,10.254,0
1539623633.133,43.945,44.922,43.945,34.180,27.344,0
1539623633.137,35.645,41.016,42.480,25.879,51.270,0
1539623633.141,28.809,38.086,37.109,30.273,98.145,0
1539623633.145,35.645,38.574,37.598,37.598,106.445,0
1539623633.148,33.203,38.574,37.109,34.180,93.750,0
1539623633.152,27.344,38.086,35.645,29.785,91.309,0
1539623633.156,24.414,36.621,35.156,30.273,90.820,0
1539623633.160,34.668,36.621,33.691,34.668,71.777,0
1539623633.164,36.133,39.062,37.598,36.133,11.230,0
1539623633.168,20.020,40.039,38.086,30.762,25.879,0
1539623633.172,21.973,37.598,39.551,25.391,37.598,0
1539623633.176,26.367,36.133,45.898,25.391,-32.715,0
1539623633.180,21.484,34.668,41.992,22.461,-46.387,0
1539623633.184,9.766,29.297,32.715,18.555,6.836,0
1539623633.188,6.348,31.738,29.297,18.066,31.738,0
1539623633.191,17.090,36.133,32.715,19.531,47.852,0
1539623633.195,20.508,39.062,35.645,16.113,49.316,0
1539623633.199,21.973,43.457,37.598,25.879,40.039,0
1539623633.203,22.461,44.922,42.480,33.203,106.445,0
1539623633.207,22.461,47.363,40.039,18.066,92.285,0
1539623633.211,21.973,46.875,32.715,13.184,47.363,0
1539623633.215,32.227,42.480,32.715,20.020,56.152,0
1539623633.219,36.133,37.598,33.691,25.391,38.086,0
1539623633.223,29.785,42.969,32.227,30.762,32.715,0
1539623633.227,35.645,45.898,37.109,29.785,34.668,0
1539623633.230,29.297,39.551,38.086,22.949,44.434,0
1539623633.234,22.949,41.992,38.574,26.367,48.828,0
1539623633.238,31.738,41.992,44.922,28.809,48.340,0
1539623633.242,25.879,36.133,42.969,20.996,-42.480,0
1539623633.246,27.832,39.062,45.898,20.996,-7.324,0
1539623633.250,29.785,41.016,48.828,29.297,42.969,0
1539623633.254,20.996,36.133,41.504,25.391,-13.672,0
1539623633.258,20.508,33.691,39.062,22.461,46.387,0
1539623633.262,20.508,35.156,40.527,18.555,58.594,0
1539623633.266,19.043,32.715,41.504,13.184,1.465,0
1539623633.270,18.555,30.762,41.016,13.184,10.742,0
1539623633.273,20.020,29.297,39.551,17.578,41.016,0
1539623633.277,27.344,28.809,40.039,24.414,18.555,0
1539623633.281,27.344,34.668,47.852,22.949,7.812,0
1539623633.285,12.207,34.180,48.340,17.090,73.242,0
1539623633.289,0.000,34.180,39.062,22.949,25.391,0
1539623633.293,14.648,40.527,34.180,33.203,-25.879,0
1539623633.297,20.020,40.527,28.320,20.020,6.348,0
1539623633.301,8.789,35.645,28.809,16.113,42.969,0
1539623633.305,17.090,35.645,35.645,22.949,34.668,0
1539623633.309,26.855,38.574,41.016,28.809,-11.719,0
1539623633.313,19.043,36.133,40.039,29.785,25.879,0
1539623633.316,19.043,36.621,42.480,21.973,48.340,0
1539623633.320,24.902,39.062,44.922,23.926,24.414,0
1539623633.324,31.250,43.457,40.527,27.832,-17.578,0
1539623633.328,27.832,45.410,38.574,22.949,6.836,0
1539623633.332,18.555,39.551,36.133,20.508,53.711,0
1539623633.336,21.484,40.527,29.297,17.578,25.391,0
1539623633.340,20.020,43.457,25.879,18.555,10.742,0
1539623633.344,21.973,42.969,29.297,24.414,21.484,0
1539623633.348,19.531,40.527,32.227,26.367,81.055,0
1539623633.352,20.020,37.109,31.738,27.344,75.195,0
1539623633.355,32.715,34.668,32.227,29.785,40.527,0
1539623633.359,33.691,37.109,38.086,32.715,34.668,0
1539623633.363,34.180,40.039,40.527,21.973,39.062,0
1539623633.367,29.297,39.062,38.086,16.602,77.148,0
1539623633.371,30.762,43.457,39.551,27.832,10.742,0
1539623633.375,32.715,45.898,35.645,26.855,3.418,0
1539623633.379,30.762,38.086,32.715,20.508,73.242,0
1539623633.383,29.785,36.621,29.785,23.438,24.902,0
1539623633.387,31.738,41.016,28.320,28.809,15.137,0
1539623633.391,34.180,38.086,28.320,30.273,37.109,0
1539623633.395,28.809,34.180,25.391,29.297,26.855,0
1539623633.398,33.691,34.668,28.320,33.691,-3.906,0
1539623633.402,41.992,34.180,28.809,34.668,37.109,0
1539623633.406,33.691,39.062,32.715,26.367,92.285,0
1539623633.410,23.926,40.527,35.645,20.508,101.074,0
1539623633.414,29.785,39.062,31.250,29.297,12.695,0
1539623633.418,30.273,37.109,31.250,23.926,-62.500,0
1539623633.422,18.555,30.273,33.691,20.508,31.738,0
1539623633.426,20.020,32.715,35.156,29.297,38.086,0
1539623633.430,21.973,38.086,38.574,25.879,18.066,0
1539623633.434,26.855,39.551,41.992,25.879,31.738,0
1539623633.438,33.203,37.598,41.504,26.855,56.152,0
1539623633.441,27.344,38.086,40.039,20.996,11.230,0
1539623633.445,25.391,37.109,40.527,21.973,-3.906,0
1539623633.449,24.902,37.109,39.062,26.367,20.020,0
1539623633.453,18.555,36.621,39.551,21.973,6.836,0
1539623633.457,20.020,32.227,42.480,23.438,1.465,0
1539623633.461,26.367,33.691,42.480,30.273,26.855,0
1539623633.465,21.973,35.156,44.434,34.668,19.043,0
1539623633.469,14.160,28.809,41.504,27.832,21.973,0
1539623633.473,23.438,32.715,40.039,28.809,9.277,0
1539623633.477,28.320,37.109,41.016,30.762,-38.574,0
1539623633.480,23.926,37.598,40.527,29.785,-41.016,0
1539623633.484,25.391,38.086,39.551,28.809,3.418,0
1539623633.488,21.484,36.621,39.551,25.879,62.012,0
1539623633.492,18.066,37.598,43.457,30.762,39.062,0
1539623633.496,13.672,37.109,40.039,23.438,9.277,0
1539623633.500,18.066,40.039,33.203,21.973,73.242,0
1539623633.504,23.438,43.457,38.086,27.832,62.012,0
1539623633.508,19.043,39.062,41.992,27.344,6.348,0
1539623633.512,26.855,35.645,41.504,23.438,12.207,0
1539623633.516,26.367,36.133,36.133,21.973,32.227,0
1539623633.520,6.348,41.016,33.691,20.508,30.762,0
1539623633.523,2.930,42.969,35.645,14.160,58.594,0
1539623633.527,16.602,33.203,36.621,11.719,84.473,0
1539623633.531,21.973,31.738,37.109,16.113,0.488,0
1539623633.535,18.066,34.668,36.133,15.625,-29.785,0
1539623633.539,23.926,34.668,39.551,12.695,34.180,0
1539623633.543,22.949,30.762,42.969,17.578,29.297,0
1539623633.547,13.672,32.715,34.668,12.207,40.527,0
1539623633.551,15.137,35.645,36.621,13.672,44.922,0
1539623633.555,18.555,34.668,36.621,23.438,55.664,0
1539623633.559,16.602,32.715,31.738,21.484,56.152,0
1539623633.563,15.625,34.180,38.086,24.902,14.160,0
1539623633.566,20.508,37.598,41.016,26.367,21.484,0
1539623633.570,25.391,39.551,42.969,26.855,17.090,0
1539623633.574,26.855,36.133,40.039,28.320,-18.066,0
1539623633.578,32.715,34.668,38.086,26.367,0.000,0
1539623633.582,25.879,36.621,35.156,32.715,-2.441,0
1539623633.586,33.203,37.109,29.297,29.297,-38.086,0
1539623633.590,40.039,37.598,27.344,12.695,32.227,0
1539623633.594,16.113,40.527,31.738,14.160,116.699,0
1539623633.598,13.672,41.992,32.227,25.879,128.906,0
1539623633.602,26.855,41.016,30.762,27.832,99.609,0
1539623633.605,27.344,38.574,35.156,22.949,72.266,0
1539623633.609,40.527,44.434,36.133,30.762,89.844,0
1539623633.613,43.457,48.340,34.180,27.832,66.406,0
1539623633.617,29.297,31.738,27.832,17.578,9.277,0
1539623633.621,27.344,20.508,23.438,23.926,37.109,0
1539623633.625,34.180,32.715,29.785,23.438,69.336,0
1539623633.629,31.250,41.504,39.062,16.113,20.508,0
1539623633.633,19.043,39.062,36.133,8.789,26.855,0
1539623633.637,30.273,41.504,33.691,12.207,41.016,0
1539623633.641,43.457,44.922,35.156,20.996,51.758,0
1539623633.645,39.062,44.922,37.109,21.973,26.855,0
1539623633.648,31.738,45.410,36.621,28.320,-15.137,0
1539623633.652,28.809,41.504,34.180,29.297,15.137,0
1539623633.656,36.621,44.922,40.527,30.762,65.918,0
1539623633.660,35.645,44.434,37.598,31.738,35.156,0
1539623633.664,25.879,36.133,31.738,27.344,0.488,0
1539623633.668,33.203,41.504,40.527,36.621,-27.832,0
1539623633.672,35.645,44.922,41.504,33.203,25.879,0
1539623633.676,34.180,43.945,38.086,29.785,60.547,0
1539623633.680,33.691,40.527,40.039,38.574,1.953,0
1539623633.684,30.273,36.621,41.992,38.086,25.879,0
1539623633.688,21.484,34.180,39.551,28.809,16.113,0
1539623633.691,24.414,35.645,39.551,29.297,33.203,0
1539623633.695,35.645,39.062,37.598,36.133,41.992,0
1539623633.699,47.363,43.457,39.062,35.156,7.812,0
1539623633.703,45.410,44.434,34.180,34.180,26.855,0
1539623633.707,28.320,33.203,25.879,28.320,34.180,0
1539623633.711,22.461,35.645,31.738,27.832,7.324,0
1539623633.715,30.273,40.039,45.410,33.203,-9.766,0
1539623633.719,37.109,38.086,48.828,30.762,10.742,0
1539623633.723,32.715,41.016,43.945,28.809,1.953,0
1539623633.727,26.367,39.551,41.992,23.438,69.824,0
1539623633.730,21.484,40.527,34.180,24.414,97.168,0
1539623633.734,12.207,41.016,32.715,25.879,40.039,0
1539623633.738,10.742,39.062,27.344,16.113,59.082,0
1539623633.742,24.414,40.039,24.902,16.113,44.922,0
1539623633.746,36.621,43.945,34.180,21.484,17.578,0
1539623633.750,26.855,39.551,37.109,16.602,38.086,0
1539623633.754,12.695,34.668,34.668,9.766,20.508,0
1539623633.758,18.555,42.969,33.691,14.648,13.184,0
1539623633.762,20.508,48.828,25.879,18.555,4.883,0
1539623633.766,15.625,43.457,24.414,20.508,16.602,0
1539623633.770,27.832,38.086,32.715,18.066,36.133,0
1539623633.773,25.879,39.551,37.598,10.254,60.547,0
1539623633.777,13.184,40.527,37.598,10.742,49.805,0
1539623633.781,7.324,41.504,38.086,15.625,17.578,0
1539623633.785,5.859,41.504,38.086,19.531,60.547,0
1539623633.789,22.461,45.898,39.062,21.484,81.055,0
1539623633.793,38.574,42.969,42.969,22.949,26.367,0
1539623633.797,32.715,13.672,34.668,19.043,9.277,0
1539623633.801,41.016,8.301,21.973,32.715,24.902,0
1539623633.805,57.129,37.598,29.785,51.758,76.172,0
1539623633.809,50.781,53.223,20.508,47.852,39.551,0
1539623633.813,65.918,28.320,18.066,54.199,20.508,0
1539623633.816,108.398,-15.137,53.223,79.102,76.172,0
1539623633.820,108.887,17.090,62.012,94.238,55.664,0
1539623633.824,48.340,86.426,18.555,66.406,2.930,0
1539623633.828,17.578,88.379,22.949,40.527,-20.020,0
1539623633.832,40.039,62.988,72.754,41.504,1.953,0
1539623633.836,121.582,25.879,66.895,103.516,54.199,0
1539623633.840,203.125,-32.227,66.406,179.688,48.828,0
1539623633.844,181.152,32.715,44.434,181.641,5.371,0
1539623633.848,149.902,104.980,77.637,183.594,57.617,0
1539623633.852,178.223,15.137,139.648,192.871,70.312,0
1539623633.855,181.641,-99.121,85.449,173.828,25.391,0
1539623633.859,49.316,12.207,42.480,51.270,51.758,0
1539623633.863,-88.379,176.758,30.762,-70.312,105.469,0
1539623633.867,-137.695,150.391,9.277,-120.605,11.230,0
1539623633.871,-129.883,81.543,-78.125,-122.070,-6.348,0
1539623633.875,-19.043,86.914,-86.914,0.488,81.543,0
1539623633.879,161.133,-0.977,101.074,141.113,11.230,0
1539623633.883,323.730,-88.379,232.910,267.090,1.953,0
1539623633.887,252.441,9.277,179.199,213.867,57.617,0
1539623633.891,10.742,41.016,28.809,-1.953,39.551,0
1539623633.895,-17.578,120.117,-31.738,-4.883,16.113,0
1539623633.898,34.668,232.422,-48.828,52.246,21.973,0
1539623633.902,-50.293,163.574,-66.895,-35.156,0.000,0
1539623633.906,-104.004,67.871,-64.453,-99.609,6.348,0
1539623633.910,-90.332,42.480,-50.781,-86.914,17.090,0
1539623633.914,-83.008,21.973,-53.223,-75.195,47.363,0
1539623633.918,-38.086,28.809,-21.484,-33.691,33.203,0
1539623633.922,18.555,52.246,3.906,12.695,28.320,0
1539623633.926,49.316,59.570,6.348,36.133,15.625,0
1539623633.930,49.805,70.312,10.742,45.898,-9.766,0
1539623633.934,40.039,85.938,13.184,56.152,50.781,0
1539623633.938,28.320,86.914,13.184,65.430,78.613,0
1539623633.941,16.113,74.707,13.672,58.594,27.344,0
1539623633.945,16.113,73.730,13.672,57.617,-6.836,0
1539623633.949,15.137,79.102,13.672,70.801,32.227,0
1539623633.953,14.160,84.473,18.066,79.102,33.691,0
1539623633.957,10.742,86.914,25.391,78.613,25.879,0
1539623633.961,-0.488,81.055,29.297,76.660,69.336,0
1539623633.965,-0.488,78.125,32.227,85.938,103.027,0
1539623633.969,7.324,86.914,42.480,100.098,43.945,0
1539623633.973,-1.465,82.031,43.945,93.750,36.133,0
1539623633.977,-7.812,70.312,39.551,89.844,91.797,0
1539623633.980,-14.648,68.848,40.039,92.285,55.664,0
1539623633.984,-18.555,72.266,44.922,84.473,6.348,0
1539623633.988,-2.441,65.918,45.410,81.055,24.902,0
1539623633.992,-14.648,62.012,41.992,78.125,26.855,0
1539623633.996,-22.949,70.801,44.922,75.195,34.180,0
1539623634.000,-18.555,74.219,51.758,84.473,65.918,0
1539623634.004,-16.602,65.430,65.430,88.379,82.031,0
1539623634.008,-18.555,58.105,70.801,91.309,63.477,0
1539623634.012,-18.555,56.152,81.543,104.980,3.906,0
1539623634.016,-20.020,44.922,78.613,89.844,25.391,0
1539623634.020,-20.508,52.734,52.734,77.148,59.082,0
1539623634.023,-11.719,68.848,54.199,91.797,46.387,0
1539623634.027,-15.625,71.289,73.730,101.562,15.625,0
1539623634.031,-23.438,81.543,77.637,92.773,17.090,0
1539623634.035,-51.758,73.242,68.359,51.758,-11.230,0
1539623634.039,-73.730,46.387,54.199,28.320,-23.926,0
1539623634.043,-74.219,38.086,51.270,34.668,-6.348,0
1539623634.047,-73.730,38.086,51.758,32.715,53.223,0
1539623634.051,-59.570,37.598,52.246,35.645,82.031,0
1539623634.055,-57.617,40.039,53.223,43.945,12.207,0
1539623634.059,-50.293,36.621,53.223,45.410,65.918,0
1539623634.063,-41.504,43.945,58.594,51.758,95.215,0
1539623634.066,-39.551,57.129,51.270,59.082,57.129,0
1539623634.070,-9.766,40.039,23.926,66.895,57.129,0
1539623634.074,6.836,27.344,50.781,78.613,23.926,0
1539623634.078,-9.277,53.711,93.262,70.312,26.367,0
1539623634.082,-31.250,59.082,86.914,47.852,41.992,0
1539623634.086,-42.969,44.434,78.125,36.133,77.637,0
1539623634.090,-34.180,48.828,69.336,49.805,75.195,0
1539623634.094,-11.230,44.434,63.477,62.012,59.570,0
1539623634.098,-11.719,36.133,72.266,58.105,85.449,0
1539623634.102,-25.879,46.875,75.195,60.547,57.617,0
1539623634.105,-15.137,49.805,83.008,62.012,32.715,0
1539623634.109,-20.020,36.133,76.660,49.316,-11.230,0
1539623634.113,-30.273,40.039,47.363,24.414,-72.266,0
1539623634.117,-32.227,42.480,36.621,23.438,-36.133,0
1539623634.121,-38.086,35.645,45.410,44.434,6.836,0
1539623634.125,-25.391,41.016,47.852,47.363,54.199,0
1539623634.129,-16.602,43.457,47.363,44.922,64.941,0
1539623634.133,-11.719,52.246,56.641,45.898,32.227,0
1539623634.137,-15.625,49.805,65.918,35.645,33.203,0
1539623634.141,-12.207,33.203,69.336,42.480,62.012,0
1539623634.145,2.930,33.203,60.547,52.246,28.809,0
1539623634.148,0.488,34.180,61.035,46.875,9.766,0
1539623634.152,7.812,40.039,48.828,45.410,88.867,0
1539623634.156,7.324,57.617,17.578,53.223,61.523,0
1539623634.160,-8.301,55.664,31.738,50.293,-12.207,0
1539623634.164,-17.090,35.645,76.172,31.738,28.320,0
1539623634.168,-13.672,31.250,93.262,17.578,29.297,0
1539623634.172,-8.789,35.645,87.402,14.648,1.953,0
1539623634.176,0.977,26.855,81.543,32.715,37.109,0
1539623634.180,-0.977,32.715,73.242,34.668,63.477,0
1539623634.184,-20.996,53.711,53.223,14.160,73.730,0
1539623634.188,-19.043,55.664,47.363,8.301,84.961,0
1539623634.191,-13.184,47.363,57.129,9.766,58.105,0
1539623634.195,-17.090,42.969,51.758,7.324,21.484,0
1539623634.199,-9.277,36.133,43.457,11.719,53.711,0
1539623634.203,9.277,28.320,46.387,31.250,63.477,0
1539623634.207,18.555,25.391,53.711,40.527,65.918,0
1539623634.211,32.715,30.273,65.430,41.016,61.523,0
1539623634.215,20.020,47.363,69.824,31.250,19.531,0
1539623634.219,-7.812,48.828,60.059,11.719,-21.973,0
1539623634.223,-2.441,34.180,47.852,13.184,-11.230,0
1539623634.227,5.859,39.551,62.500,24.902,2.930,0
1539623634.230,9.766,43.945,73.242,27.344,64.941,0
1539623634.234,5.371,40.039,62.988,19.531,91.797,0
1539623634.238,-16.602,37.109,55.664,11.230,63.965,0
1539623634.242,-11.230,35.645,57.129,9.766,41.016,0
1539623634.246,1.465,36.621,51.758,13.672,31.250,0
1539623634.250,-4.395,37.109,40.527,20.508,46.875,0
1539623634.254,0.000,39.551,44.922,32.715,5.371,0
1539623634.258,13.672,39.551,56.641,31.250,11.719,0
1539623634.262,8.301,32.715,57.129,14.160,17.578,0
1539623634.266,-0.488,29.297,55.664,17.578,13.672,0
1539623634.270,17.090,28.320,61.035,34.668,40.527,0
1539623634.273,30.762,25.879,68.359,41.016,72.754,0
1539623634.277,23.438,31.738,52.734,35.156,91.309,0
1539623634.281,23.926,43.945,43.457,38.574,52.734,0
1539623634.285,48.340,52.246,61.035,56.152,5.371,0
1539623634.289,50.781,50.293,67.871,62.500,3.418,0
1539623634.293,20.508,39.551,69.336,51.758,41.992,0
1539623634.297,16.602,24.414,65.918,46.387,65.918,0
1539623634.301,23.438,21.484,57.617,42.480,61.035,0
1539623634.305,17.090,30.762,45.898,23.438,3.906,0
1539623634.309,14.160,27.832,56.152,12.207,-39.062,0
1539623634.313,20.996,27.344,69.336,17.578,1.953,0
1539623634.316,14.648,32.715,61.523,31.250,42.480,0
1539623634.320,17.090,32.715,68.359,39.551,61.035,0
1539623634.324,17.578,29.785,71.777,38.086,77.148,0
1539623634.328,5.371,25.391,62.988,33.691,63.477,0
1539623634.332,10.742,34.180,71.289,34.668,43.457,0
1539623634.336,15.625,43.945,68.359,38.086,25.391,0
1539623634.340,13.672,33.203,57.129,28.809,-36.621,0
1539623634.344,23.926,36.621,57.129,23.438,-22.949,0
1539623634.348,31.738,44.922,67.383,36.133,0.488,0
1539623634.352,20.020,41.992,67.871,41.016,2.441,0
1539623634.355,16.113,32.227,52.246,30.273,36.621,0
1539623634.359,31.250,23.926,57.129,26.367,24.902,0
1539623634.363,32.227,29.785,67.871,44.922,40.527,0
1539623634.367,14.160,23.926,62.988,49.805,56.641,0
1539623634.371,12.695,14.648,59.082,46.387,11.719,0
1539623634.375,19.531,11.719,57.617,43.945,-18.066,0
1539623634.379,23.926,17.578,56.152,32.227,-16.113,0
1539623634.383,34.668,37.109,47.363,37.109,14.648,0
1539623634.387,36.621,51.270,32.227,42.969,80.078,0
1539623634.391,30.762,53.711,47.363,42.480,65.430,1
1539623634.395,37.598,47.852,68.359,39.551,-5.371,0
1539623634.398,30.273,27.344,47.363,32.227,-25.879,0
1539623634.402,17.090,21.973,35.156,26.367,48.340,0
1539623634.406,32.715,52.246,65.430,27.832,63.965,0
1539623634.410,31.250,48.340,66.406,19.531,49.805,0
1539623634.414,11.230,14.160,53.711,11.230,76.172,0
1539623634.418,-4.883,16.113,58.594,17.090,59.570,0
1539623634.422,-19.043,27.832,55.176,0.000,98.145,0
1539623634.426,-20.508,27.344,41.992,-3.906,99.609,0
1539623634.430,-15.137,20.508,40.039,4.395,54.199,0
1539623634.434,3.906,21.973,47.363,6.836,44.434,0
1539623634.438,15.625,40.039,39.062,19.043,52.246,0
1539623634.441,18.066,45.410,42.969,30.273,69.336,0
1539623634.445,28.320,14.160,70.312,29.297,73.730,0
1539623634.449,22.461,9.277,74.707,20.508,78.125,0
1539623634.453,-4.395,22.949,72.754,1.465,58.594,0
1539623634.457,-16.602,16.113,64.941,-7.324,6.348,0
1539623634.461,3.418,29.297,56.641,12.207,19.531,0
1539623634.465,7.812,27.832,56.152,22.949,40.039,0
1539623634.469,0.977,13.184,58.105,18.555,10.254,0
1539623634.473,-7.812,14.648,56.152,5.371,-29.297,0
1539623634.477,-6.836,19.043,58.105,6.348,-22.949,0
1539623634.480,7.324,23.926,54.199,14.648,66.406,0
1539623634.484,11.719,23.438,47.852,19.531,72.266,0
1539623634.488,14.648,20.996,52.246,26.855,38.574,0
1539623634.492,16.113,12.695,48.340,35.645,46.875,0
1539623634.496,19.043,18.066,53.223,34.180,54.688,0
1539623634.500,29.297,30.273,73.730,34.668,-6.836,0
1539623634.504,32.715,32.715,80.078,49.805,-21.484,0
1539623634.508,29.297,36.133,83.496,61.523,15.625,0
1539623634.512,41.992,33.691,85.938,72.754,-1.465,0
1539623634.516,60.059,27.832,64.941,68.848,27.344,0
1539623634.520,41.992,18.555,65.430,46.387,19.531,0
1539623634.523,11.230,24.902,78.613,36.133,39.062,0
1539623634.527,10.254,32.715,66.895,33.203,47.363,0
1539623634.531,17.578,28.320,60.547,26.367,25.879,0
1539623634.535,29.785,30.273,64.941,30.273,-10.254,0
1539623634.539,27.832,29.297,67.383,39.551,14.160,0
1539623634.543,32.227,29.785,68.848,44.434,85.449,0
1539623634.547,33.691,25.879,64.453,42.969,17.578,0
1539623634.551,40.527,23.438,49.805,51.270,-24.414,0
1539623634.555,55.664,25.391,45.410,55.176,73.242,0
1539623634.559,42.969,25.391,57.129,44.434,110.840,0
1539623634.563,38.086,24.902,53.711,45.410,88.867,0
1539623634.566,49.805,35.645,53.711,62.500,55.664,0
1539623634.570,47.852,48.828,74.219,76.172,50.781,0
1539623634.574,27.832,42.969,76.660,48.340,20.020,0
1539623634.578,13.184,26.855,65.430,13.184,43.945,0
1539623634.582,17.090,20.996,57.617,22.461,55.664,0
1539623634.586,28.320,24.414,60.059,32.715,41.504,0
1539623634.590,36.133,29.785,64.453,28.320,31.738,0
1539623634.594,25.879,27.832,59.082,36.133,7.812,0
1539623634.598,18.066,26.367,57.129,43.457,37.109,0
1539623634.602,28.320,29.785,62.500,45.410,55.664,0
1539623634.605,41.992,29.297,67.383,50.293,40.039,0
1539623634.609,30.762,26.855,62.500,49.316,0.977,0
1539623634.613,18.555,27.344,53.223,47.363,7.812,0
1539623634.617,33.691,30.762,58.105,54.199,27.832,0
1539623634.621,36.621,27.832,60.059,56.152,-3.418,0
1539623634.625,36.133,24.902,57.617,51.270,-29.785,0
1539623634.629,31.250,27.832,62.500,50.781,-22.949,0
1539623634.633,28.320,28.320,65.430,42.480,11.230,0
1539623634.637,36.621,26.855,58.594,40.039,35.645,0
1539623634.641,46.387,29.785,48.340,54.688,10.254,0
1539623634.645,37.598,33.691,48.340,56.641,34.180,0
1539623634.648,41.016,36.621,59.570,49.316,104.004,0
1539623634.652,43.945,35.645,65.918,49.805,23.926,0
1539623634.656,26.367,30.762,62.500,46.875,7.812,0
1539623634.660,19.531,26.855,64.941,35.645,33.203,0
1539623634.664,26.367,22.461,70.312,36.621,-11.719,0
1539623634.668,27.832,25.879,67.383,38.574,-12.207,0
1539623634.672,22.461,26.367,61.523,37.109,22.949,0
1539623634.676,34.668,25.879,56.641,45.898,63.477,0
1539623634.680,41.504,26.855,59.082,48.828,106.445,0
1539623634.684,52.734,21.973,59.570,48.340,35.645,0
1539623634.688,50.781,18.555,60.547,40.527,9.277,0
1539623634.691,26.855,21.973,67.871,31.738,15.625,0
1539623634.695,35.156,25.879,59.082,45.898,11.719,0
1539623634.699,46.387,21.973,58.105,59.082,18.555,0
1539623634.703,38.574,23.438,56.152,58.105,34.668,0
1539623634.707,46.875,26.367,50.781,68.848,21.484,0
1539623634.711,53.711,25.391,78.125,69.336,50.781,0
1539623634.715,46.387,27.344,57.617,46.875,58.105,0
1539623634.719,64.453,35.645,59.570,49.316,0.488,0
1539623634.723,59.082,41.504,87.402,43.945,58.105,0
1539623634.727,9.766,30.273,64.453,6.836,61.035,0
1539623634.730,0.000,24.414,57.617,1.953,67.383,0
1539623634.734,10.254,35.156,65.430,18.066,90.332,0
1539623634.738,16.602,32.715,54.199,10.742,38.574,0
1539623634.742,7.324,14.160,43.457,2.441,-8.301,0
1539623634.746,0.000,11.230,49.805,4.395,-26.367,0
1539623634.750,11.230,18.066,57.129,14.648,-13.184,0
1539623634.754,22.461,19.531,60.547,30.273,41.992,0
1539623634.758,21.973,23.926,59.570,31.250,35.156,0
1539623634.762,36.621,28.809,60.059,29.785,41.504,0
1539623634.766,49.805,28.809,56.152,39.062,72.266,0
1539623634.770,24.414,25.879,47.363,41.992,37.598,0
1539623634.773,20.996,26.367,47.852,41.016,3.906,0
1539623634.777,35.645,27.832,62.500,42.969,71.289,0
1539623634.781,42.480,31.738,81.543,48.340,78.613,0
1539623634.785,36.621,34.668,80.078,44.922,-3.906,0
1539623634.789,31.250,25.879,64.453,28.809,-0.488,0
1539623634.793,22.949,22.461,57.617,36.133,47.363,0
1539623634.797,6.836,23.926,60.059,41.016,62.988,0
1539623634.801,13.672,29.785,60.547,40.039,14.160,0
1539623634.805,28.320,34.668,58.594,41.016,-20.508,0
1539623634.809,23.926,30.762,61.035,42.480,-2.441,0
1539623634.813,20.020,28.320,61.035,39.551,39.551,0
1539623634.816,29.297,34.668,55.176,31.738,44.434,0
1539623634.820,24.414,34.668,48.828,35.156,4.395,0
1539623634.824,26.367,34.668,46.387,34.180,9.277,0
1539623634.828,35.156,39.551,56.152,28.809,-5.371,0
1539623634.832,25.879,31.250,50.781,29.785,36.621,0
1539623634.836,27.344,26.367,58.105,32.715,48.340,0
1539623634.840,40.039,30.762,65.430,38.574,13.184,0
1539623634.844,34.668,30.273,59.082,41.016,36.133,0
1539623634.848,21.973,25.879,56.152,33.203,61.523,0
1539623634.852,18.555,23.926,57.129,37.109,29.785,0
1539623634.855,21.973,24.414,66.406,47.852,4.395,0
1539623634.859,28.809,25.391,61.035,36.133,26.855,0
1539623634.863,34.180,28.320,44.434,33.203,-38.086,0
1539623634.867,29.785,28.320,44.922,39.062,-41.504,0
1539623634.871,39.062,30.762,51.758,54.199,15.625,0
1539623634.875,38.086,26.855,53.223,54.688,48.340,0
1539623634.879,28.809,28.320,57.129,47.852,66.406,0
1539623634.883,44.922,32.227,54.688,59.570,0.000,0
1539623634.887,40.039,16.602,52.734,49.316,23.438,0
1539623634.891,35.156,19.531,57.129,41.504,111.816,0
1539623634.895,41.016,33.691,54.688,51.758,60.547,0
1539623634.898,38.574,37.109,60.059,49.805,-8.789,0
1539623634.902,24.414,33.691,59.082,33.691,16.113,0
1539623634.906,27.344,25.879,57.129,34.180,83.496,0
1539623634.910,29.297,12.207,58.105,35.645,61.523,0
1539623634.914,9.277,14.160,55.176,28.320,51.758,0
1539623634.918,29.297,30.273,50.781,39.551,96.680,0
1539623634.922,45.410,33.691,40.039,41.016,8.301,0
1539623634.926,22.461,25.879,35.645,27.832,-39.551,0
1539623634.930,17.090,19.531,47.852,24.902,49.316,0
1539623634.934,19.531,14.160,52.734,24.414,110.352,0
1539623634.938,20.508,20.020,51.758,26.367,48.340,0
1539623634.941,23.438,28.809,56.152,31.738,23.926,0
1539623634.945,24.902,24.414,53.711,34.668,55.176,0
1539623634.949,27.832,20.508,52.246,31.738,52.734,0
1539623634.953,29.297,22.461,56.152,29.297,27.832,0
1539623634.957,31.250,24.902,57.617,34.668,11.719,0
1539623634.961,33.203,28.809,58.594,35.156,-2.930,0
1539623634.965,29.785,31.738,59.570,23.438,4.395,0
1539623634.969,30.273,32.227,58.105,22.949,24.902,0
1539623634.973,24.902,33.691,58.105,33.691,30.273,0
1539623634.977,24.414,32.715,53.223,32.227,6.836,0
1539623634.980,21.484,27.832,49.805,26.367,0.488,0
1539623634.984,20.996,27.832,53.711,26.367,-6.348,0
1539623634.988,37.109,29.297,54.688,34.668,-33.203,0
1539623634.992,37.109,25.391,51.758,41.504,24.902,0
1539623634.996,30.762,26.367,57.617,35.645,55.664,0
1539623635.000,32.227,26.367,53.223,40.527,60.547,0
1539623635.004,32.227,23.438,43.945,36.621,80.566,0
1539623635.008,32.227,29.297,44.922,20.996,77.148,0
1539623635.012,23.438,27.832,45.410,16.602,24.902,0
1539623635.016,20.508,22.461,47.363,20.020,65.918,0
1539623635.020,36.621,30.762,56.641,29.297,45.898,0
1539623635.023,40.039,35.156,63.965,38.574,3.906,0
1539623635.027,29.297,34.668,57.129,39.551,12.207,0
1539623635.031,29.297,34.180,49.805,35.645,-17.578,0
1539623635.035,32.715,31.250,51.758,42.969,0.977,0
1539623635.039,31.250,29.785,50.781,45.410,29.785,0
1539623635.043,21.973,25.879,54.688,30.762,-3.906,0
1539623635.047,30.273,22.949,60.547,25.879,8.301,0
1539623635.051,40.527,23.438,55.176,30.273,58.105,0
1539623635.055,44.434,25.391,49.805,32.715,71.289,0
1539623635.059,49.316,24.414,44.434,38.086,51.270,0
1539623635.063,49.316,24.414,37.598,41.992,-16.602,0
1539623635.066,51.270,28.809,45.898,43.945,-25.391,0
1539623635.070,31.738,31.738,63.965,41.504,38.086,0
1539623635.074,29.785,35.156,60.059,44.434,29.297,0
1539623635.078,35.156,43.457,48.340,49.316,67.871,0
1539623635.082,33.691,39.062,51.270,46.875,64.453,0
1539623635.086,43.457,33.691,51.270,50.293,69.336,0
1539623635.090,56.152,47.852,53.223,69.824,81.543,0
1539623635.094,50.781,38.574,56.641,69.824,33.203,0
1539623635.098,38.574,26.855,62.012,52.246,-2.441,0
1539623635.102,26.855,26.855,60.547,35.156,11.719,0
1539623635.105,22.949,27.832,48.828,32.227,54.688,0
1539623635.109,47.852,41.504,53.711,47.363,45.410,0
1539623635.113,44.922,41.016,63.965,41.992,57.617,0
1539623635.117,24.902,32.715,58.105,30.273,82.031,0
1539623635.121,25.391,30.273,62.012,32.227,37.598,0
1539623635.125,22.949,22.461,62.988,25.879,21.973,0
1539623635.129,22.461,14.648,56.152,12.695,63.965,0
1539623635.133,24.414,11.719,64.941,14.648,106.445,0
1539623635.137,31.738,19.043,52.734,28.320,70.312,0
1539623635.141,39.551,23.438,47.363,27.832,76.172,0
1539623635.145,29.297,34.668,67.871,28.809,9.766,0
1539623635.148,32.715,40.039,57.617,53.223,-32.715,0
1539623635.152,35.156,30.273,49.316,53.223,46.875,0
1539623635.156,27.344,32.715,63.965,34.180,30.762,0
1539623635.160,23.438,39.062,69.336,20.508,16.602,0
1539623635.164,19.043,35.156,49.316,29.785,34.180,0
1539623635.168,48.340,42.480,49.805,55.176,32.715,0
1539623635.172,59.570,43.457,53.711,51.758,10.742,0
1539623635.176,40.527,24.902,48.340,38.574,-19.531,0
1539623635.180,35.156,22.949,52.734,29.785,-41.504,0
1539623635.184,41.992,41.992,54.688,41.504,-23.438,0
1539623635.188,51.270,46.387,54.688,58.105,70.312,0
1539623635.191,46.387,33.691,41.992,42.969,52.734,0
1539623635.195,51.270,31.738,44.434,32.227,-46.387,0
1539623635.199,43.945,32.715,54.688,35.645,-9.277,0
1539623635.203,29.785,30.762,54.199,34.668,20.020,0
1539623635.207,26.367,31.250,51.758,21.973,-9.766,0
1539623635.211,22.949,34.180,46.387,22.949,14.648,0
1539623635.215,20.996,34.668,47.852,28.320,64.453,0
1539623635.219,33.203,32.227,52.734,28.320,52.734,0
1539623635.223,40.527,29.785,51.758,28.809,20.508,0
1539623635.227,27.344,33.691,48.828,31.250,58.105,0
1539623635.230,32.715,34.668,57.129,40.527,-28.320,0
1539623635.234,34.668,32.715,60.547,48.340,-36.133,0
1539623635.238,23.926,39.062,58.594,46.875,66.406,0
1539623635.242,30.762,41.016,58.105,43.945,67.383,0
1539623635.246,41.504,43.945,59.570,54.199,9.277,0
1539623635.250,31.738,38.574,55.176,42.480,-9.766,0
1539623635.254,18.555,27.832,37.109,21.973,5.859,0
1539623635.258,12.695,26.855,38.086,28.809,10.742,0
1539623635.262,23.926,32.715,59.570,30.762,12.207,0
1539623635.266,29.785,32.715,58.105,23.926,11.230,0
1539623635.270,31.250,31.738,52.734,28.809,45.410,0
1539623635.273,35.645,40.527,65.918,35.156,79.102,0
1539623635.277,24.414,41.992,63.477,34.668,26.367,0
1539623635.281,22.949,37.598,51.270,36.133,-14.160,0
1539623635.285,30.273,39.551,56.641,34.668,16.602,0
1539623635.289,24.902,39.551,62.500,36.621,41.016,0
1539623635.293,25.879,35.156,57.617,42.480,53.223,0
1539623635.297,30.273,30.273,57.617,29.785,58.594,0
1539623635.301,29.785,28.809,57.129,30.762,39.551,0
1539623635.305,32.715,27.344,51.270,34.180,93.262,0
1539623635.309,22.461,26.855,50.781,39.062,125.000,0
1539623635.313,16.602,28.320,48.828,38.574,39.551,0
1539623635.316,22.949,33.203,51.270,30.762,15.625,0
1539623635.320,26.367,35.156,54.199,38.086,93.750,0
1539623635.324,28.809,36.133,50.293,40.039,51.270,0
1539623635.328,32.715,34.180,51.758,43.945,5.859,0
1539623635.332,30.762,21.973,58.594,37.598,78.125,0
1539623635.336,22.949,20.996,54.199,32.227,110.352,0
1539623635.340,21.973,24.414,41.992,29.785,59.082,0
1539623635.344,16.602,23.438,35.645,18.555,25.879,0
1539623635.348,23.438,31.738,40.527,36.621,46.387,0
1539623635.352,26.855,29.785,41.504,42.969,60.547,0
1539623635.355,32.227,28.320,40.527,40.039,47.852,0
1539623635.359,40.527,26.367,42.969,43.945,-4.395,0
1539623635.363,35.645,27.344,42.480,40.039,9.766,0
1539623635.367,26.855,34.668,41.504,41.504,-32.227,0
1539623635.371,21.484,31.738,41.992,38.086,-24.414,0
1539623635.375,14.160,28.809,46.875,30.762,47.363,0
1539623635.379,30.762,38.086,51.270,28.320,60.059,0
1539623635.383,49.805,42.969,50.293,36.133,44.922,0
1539623635.387,38.086,28.809,32.227,27.344,33.691,0
1539623635.391,24.902,20.996,22.461,18.066,38.574,0
1539623635.395,15.137,27.344,43.945,24.902,37.109,0
1539623635.398,17.578,30.273,57.617,28.809,72.754,0
1539623635.402,17.578,27.832,47.363,22.461,69.824,0
1539623635.406,5.859,32.227,40.527,14.160,20.508,0
1539623635.410,8.789,38.086,43.945,20.508,30.762,0
1539623635.414,14.160,38.086,45.898,22.461,32.715,0
1539623635.418,13.184,34.180,49.316,29.297,37.598,0
1539623635.422,21.973,36.133,52.734,37.598,74.219,0
1539623635.426,39.551,29.785,55.664,40.527,62.500,0
1539623635.430,28.809,18.555,42.969,34.180,14.160,0
1539623635.434,21.973,21.973,30.273,33.203,26.855,0
1539623635.438,26.855,31.250,38.086,37.109,68.359,0
1539623635.441,20.996,34.668,44.434,27.832,45.410,0
1539623635.445,25.879,34.180,38.574,35.645,42.480,0
1539623635.449,33.203,35.645,37.598,33.691,94.238,0
1539623635.453,25.391,35.156,43.457,27.344,66.895,0
1539623635.457,20.020,33.691,32.227,30.762,4.883,0
1539623635.461,33.691,33.203,34.180,33.691,21.973,0
1539623635.465,34.668,36.621,48.340,36.621,23.926,0
1539623635.469,33.691,38.574,50.781,27.344,24.902,0
1539623635.473,40.527,33.691,44.434,25.391,38.086,0
1539623635.477,33.691,31.250,32.715,24.414,3.418,0
1539623635.480,18.555,31.738,39.551,19.531,-37.109,0
1539623635.484,20.020,30.273,55.176,29.785,6.348,0
1539623635.488,34.668,32.227,53.711,38.574,69.824,0
1539623635.492,36.133,34.180,43.945,34.180,58.594,0
1539623635.496,26.855,35.645,42.480,38.086,42.480,0
1539623635.500,17.090,35.156,49.316,38.086,-3.418,0
1539623635.504,22.461,33.691,58.594,30.762,-14.160,0
1539623635.508,27.344,27.344,60.059,34.180,59.570,0
1539623635.512,22.949,29.785,58.105,40.527,86.426,0
1539623635.516,30.762,41.016,46.875,39.551,30.273,0
1539623635.520,42.969,46.875,40.527,33.691,-23.926,0
1539623635.523,39.551,43.945,34.668,35.645,-52.734,0
1539623635.527,24.414,33.203,39.551,33.691,-53.711,0
1539623635.531,26.855,32.227,50.781,30.762,12.207,0
1539623635.535,23.926,37.598,48.828,23.926,34.180,0
1539623635.539,11.230,34.180,38.086,21.484,38.086,0
1539623635.543,17.578,37.598,40.039,27.344,68.359,0
1539623635.547,28.809,41.016,44.922,31.250,62.012,0
1539623635.551,25.879,39.062,37.598,34.180,-9.277,0
1539623635.555,16.113,35.156,29.297,34.668,-11.719,0
1539623635.559,26.367,38.086,26.367,31.250,33.203,0
1539623635.563,26.855,38.086,21.973,31.250,51.758,0
1539623635.566,28.809,27.344,23.926,39.062,80.566,0
1539623635.570,41.016,27.832,33.203,31.738,43.945,0
1539623635.574,38.574,33.691,35.645,29.785,30.762,0
1539623635.578,29.297,34.668,37.598,28.320,22.461,0
1539623635.582,15.137,26.855,34.180,13.672,48.340,0
1539623635.586,16.113,29.785,24.902,23.438,37.109,0
1539623635.590,22.949,36.133,24.902,30.273,-39.062,0
1539623635.594,24.414,28.320,31.738,22.949,-10.742,0
1539623635.598,20.508,29.297,31.250,19.043,-4.883,0
1539623635.602,15.137,38.086,38.574,26.855,-9.277,0
1539623635.605,24.414,37.109,46.387,30.762,40.039,0
1539623635.609,40.039,37.598,45.898,28.320,39.551,0
1539623635.613,32.715,39.551,38.086,31.738,21.484,0
1539623635.617,25.391,33.203,35.156,25.879,67.383,0
1539623635.621,35.156,34.668,39.062,23.438,71.777,0
1539623635.625,34.668,38.086,33.203,21.484,13.184,0
1539623635.629,26.367,34.668,31.250,31.738,2.441,0
1539623635.633,32.715,32.227,41.016,46.387,24.902,0
1539623635.637,25.879,28.809,42.480,36.621,26.367,0
1539623635.641,22.461,28.809,39.062,29.785,42.969,0
1539623635.645,37.598,35.156,37.109,40.039,22.949,0
1539623635.648,36.621,39.551,40.039,47.363,-20.020,0
1539623635.652,37.598,43.457,45.410,44.922,20.996,0
1539623635.656,52.734,47.363,44.922,41.016,9.766,0
1539623635.660,43.457,39.062,40.527,29.297,5.859,0
1539623635.664,41.992,34.668,33.691,26.855,96.680,0
1539623635.668,47.363,40.527,32.715,32.715,73.242,0
1539623635.672,42.480,35.645,25.879,36.621,-50.293,0
1539623635.676,40.039,28.809,25.391,38.574,-23.926,0
1539623635.680,35.645,37.109,38.086,44.434,76.660,0
1539623635.684,31.250,42.969,44.434,42.969,47.852,0
1539623635.688,31.250,40.039,40.039,31.738,16.602,0
1539623635.691,20.508,34.668,39.551,25.391,19.043,0
1539623635.695,20.996,31.250,42.480,19.531,63.965,0
1539623635.699,20.508,34.180,40.527,23.438,81.055,0
1539623635.703,17.090,37.598,39.551,26.367,36.133,0
1539623635.707,32.715,42.480,36.621,30.762,54.199,0
1539623635.711,35.645,39.062,37.109,31.250,60.547,0
1539623635.715,45.898,38.086,35.156,26.855,8.789,0
1539623635.719,46.875,43.457,36.133,33.691,31.738,0
1539623635.723,35.645,41.504,37.598,39.551,38.086,0
1539623635.727,40.039,40.039,39.062,48.340,-5.859,0
1539623635.730,38.574,33.691,41.504,45.410,35.156,0
1539623635.734,31.738,29.297,37.598,37.598,41.992,0
1539623635.738,28.320,30.273,38.086,35.645,49.805,0
1539623635.742,24.902,31.738,35.645,25.879,64.941,0
1539623635.746,35.156,34.668,31.738,24.414,43.457,0
1539623635.750,45.410,35.645,41.504,34.668,53.223,0
1539623635.754,41.504,33.691,48.340,37.109,21.484,0
1539623635.758,35.156,28.809,47.363,29.297,-14.160,0
1539623635.762,29.297,25.391,40.527,24.902,62.500,0
1539623635.766,27.344,31.250,32.715,37.109,67.871,0
1539623635.770,38.086,37.598,36.621,42.969,41.016,0
1539623635.773,38.574,38.574,40.527,36.133,40.527,0
1539623635.777,28.809,36.133,44.434,41.016,70.312,0
1539623635.781,21.484,31.738,48.828,36.621,103.027,0
1539623635.785,32.715,35.156,46.875,40.527,41.992,0
1539623635.789,41.992,38.574,40.527,47.852,75.684,0
1539623635.793,32.227,33.691,41.016,37.109,103.027,0
1539623635.797,31.250,31.250,44.434,39.062,48.340,0
1539623635.801,31.250,27.832,45.898,39.551,94.727,0
1539623635.805,28.320,29.297,45.410,32.715,77.637,0
1539623635.809,18.555,31.738,34.668,34.180,29.785,0
1539623635.813,10.254,33.203,38.574,31.250,60.547,0
1539623635.816,15.137,37.598,49.316,23.438,62.988,0
1539623635.820,20.020,36.133,43.945,22.949,73.730,0
1539623635.824,27.832,34.180,41.016,32.227,25.879,1
1539623635.828,21.484,34.180,46.875,31.250,33.691,0
1539623635.832,24.902,33.203,51.758,30.273,68.359,0
1539623635.836,35.645,31.250,44.922,31.738,73.730,0
1539623635.840,33.691,32.227,33.203,35.645,53.711,0
1539623635.844,34.180,37.598,36.621,33.203,49.316,0
1539623635.848,37.598,40.527,46.875,38.086,41.504,0
1539623635.852,27.832,35.645,43.457,35.156,47.852,0
1539623635.855,23.926,35.156,41.992,20.996,78.125,0
1539623635.859,36.133,34.180,46.875,34.180,25.391,0
1539623635.863,27.344,29.785,42.480,40.039,-43.945,0
1539623635.867,14.648,30.273,33.203,29.297,29.297,0
1539623635.871,26.855,35.156,26.855,35.645,41.504,0
1539623635.875,32.715,40.039,39.062,39.551,-18.555,0
1539623635.879,22.461,36.133,55.176,37.598,11.230,0
1539623635.883,17.578,26.855,49.805,27.344,24.902,0
1539623635.887,18.555,24.902,44.922,19.531,39.062,0
1539623635.891,14.160,28.320,46.875,19.531,20.020,0
1539623635.895,23.926,33.691,47.363,18.066,48.828,0
1539623635.898,29.785,35.156,46.875,14.160,59.570,0
1539623635.902,19.043,31.738,46.875,13.184,52.734,0
1539623635.906,21.973,37.598,44.434,21.484,47.852,0
1539623635.910,14.648,35.156,42.480,21.484,78.125,0
1539623635.914,25.879,33.691,41.504,25.879,126.465,0
1539623635.918,41.504,37.598,44.922,31.250,109.863,0
1539623635.922,35.156,37.109,46.387,31.250,80.566,0
1539623635.926,35.645,38.086,34.180,28.809,25.879,0
1539623635.930,50.293,36.133,24.902,28.320,-2.930,0
1539623635.934,50.293,36.621,37.109,34.180,21.973,0
1539623635.938,44.434,33.691,50.781,42.480,0.977,0
1539623635.941,47.852,28.809,47.363,41.992,-0.488,0
1539623635.945,36.621,29.785,41.016,35.645,28.320,0
1539623635.949,35.645,31.738,39.062,34.180,29.785,0
1539623635.953,32.715,29.785,39.062,23.926,46.387,0
1539623635.957,13.184,27.344,38.574,17.090,97.168,0
1539623635.961,10.742,32.715,41.016,19.531,95.215,0
1539623635.965,24.414,36.133,47.852,29.785,66.895,0
1539623635.969,25.391,33.203,42.480,26.367,63.965,0
1539623635.973,28.320,36.621,41.016,16.113,31.250,0
1539623635.977,31.738,36.621,41.016,18.066,24.902,0
1539623635.980,31.250,30.762,34.180,12.695,45.898,0
1539623635.984,37.598,32.227,34.668,17.090,18.066,0
1539623635.988,38.574,32.715,30.762,29.297,28.809,0
1539623635.992,33.691,29.785,28.809,38.574,29.785,0
1539623635.996,31.250,30.762,38.086,36.621,30.273,0
1539623636.000,33.691,36.133,32.715,34.668,10.254,0
1539623636.004,35.645,36.133,21.973,44.434,-17.578,0
1539623636.008,33.203,37.598,36.133,51.758,23.926,0
1539623636.012,44.922,46.387,42.480,48.340,17.090,0
1539623636.016,41.016,46.875,42.480,35.645,31.738,0
1539623636.020,27.344,41.016,50.781,37.109,81.543,0
1539623636.023,38.574,35.645,49.805,42.969,70.801,0
1539623636.027,43.457,28.809,39.062,39.062,40.039,0
1539623636.031,43.457,27.832,35.156,40.527,41.016,0
1539623636.035,37.598,31.738,28.809,38.574,10.742,0
1539623636.039,25.879,34.668,28.809,24.902,-1.953,0
1539623636.043,29.785,40.527,29.297,20.996,-38.574,0
1539623636.047,35.156,35.645,16.113,21.484,-11.230,0
1539623636.051,29.785,29.297,26.855,19.043,71.777,0
1539623636.055,35.156,38.086,41.504,25.391,59.082,0
1539623636.059,33.691,33.203,36.133,18.066,-2.441,0
1539623636.063,15.137,30.273,25.391,10.742,3.906,0
1539623636.066,13.184,39.062,25.391,21.973,-24.902,0
1539623636.070,27.344,42.969,41.016,29.785,-40.039,0
1539623636.074,31.738,41.016,37.598,33.691,14.160,0
1539623636.078,24.414,31.250,21.484,35.645,23.438,0
1539623636.082,32.227,29.785,27.832,36.621,24.902,0
1539623636.086,41.992,35.645,43.457,37.598,49.805,0
1539623636.090,38.086,34.180,41.992,28.320,15.137,0
1539623636.094,32.715,31.738,39.551,23.438,-63.965,0
1539623636.098,26.367,34.180,38.086,28.809,-20.508,0
1539623636.102,23.438,35.645,37.109,33.203,-22.461,0
1539623636.105,23.438,28.320,43.457,31.250,-0.488,0
1539623636.109,21.484,22.949,45.410,27.344,27.832,0
1539623636.113,25.391,26.855,40.527,28.809,13.672,0
1539623636.117,15.625,24.902,36.133,29.785,19.043,0
1539623636.121,11.719,22.461,34.668,39.062,67.383,0
1539623636.125,12.207,27.832,31.738,27.832,92.285,0
1539623636.129,1.953,29.785,33.203,15.137,28.809,0
1539623636.133,15.625,29.785,39.062,25.391,-1.953,0
1539623636.137,20.020,31.738,38.574,19.043,17.090,0
1539623636.141,3.418,31.250,36.133,18.555,-36.133,0
1539623636.145,13.184,31.250,32.227,29.785,-17.090,0
1539623636.148,21.484,31.738,30.762,27.832,41.992,0
1539623636.152,16.602,30.273,33.691,21.484,29.297,0
1539623636.156,25.391,29.785,36.133,28.320,41.992,0
1539623636.160,25.391,35.156,36.621,39.551,32.715,0
1539623636.164,16.602,35.156,32.715,35.156,1.465,0
1539623636.168,14.160,35.645,39.551,27.832,56.641,0
1539623636.172,27.344,40.039,46.387,34.180,43.457,0
1539623636.176,44.922,43.945,39.551,33.691,-11.230,0
1539623636.180,29.297,40.527,35.156,24.414,66.895,0
1539623636.184,15.137,34.180,32.715,21.973,82.520,0
1539623636.188,30.273,36.621,33.691,36.133,58.594,0
1539623636.191,41.016,39.551,42.969,42.969,44.434,0
1539623636.195,26.855,35.645,41.016,30.762,24.414,0
1539623636.199,14.160,32.227,31.738,24.414,22.949,0
1539623636.203,20.508,34.180,26.855,25.391,-14.160,0
1539623636.207,22.461,35.156,29.785,24.902,17.578,0
1539623636.211,17.090,34.668,37.598,28.320,83.984,0
1539623636.215,26.855,37.109,40.527,35.645,72.266,0
1539623636.219,36.133,41.992,40.039,41.992,19.531,0
1539623636.223,31.250,42.480,41.992,35.156,25.391,0
1539623636.227,27.344,37.598,38.086,22.461,84.961,0
1539623636.230,28.809,32.715,27.832,23.926,89.355,0
1539623636.234,31.250,28.809,27.344,25.879,25.391,0
1539623636.238,29.785,29.785,26.367,27.344,1.465,0
1539623636.242,26.367,36.133,20.508,22.461,17.578,0
1539623636.246,33.691,40.527,28.320,13.672,75.195,0
1539623636.250,40.527,44.922,37.109,22.949,94.727,0
1539623636.254,37.598,41.992,36.621,26.855,73.242,0
1539623636.258,33.203,30.762,31.738,22.461,29.785,0
1539623636.262,28.809,26.855,31.738,24.902,20.508,0
1539623636.266,22.949,34.180,34.180,40.039,49.805,0
1539623636.270,27.832,36.621,37.109,43.457,65.918,0
1539623636.273,35.156,39.551,40.527,39.062,45.898,0
1539623636.277,40.039,45.898,41.504,49.316,31.738,0
1539623636.281,42.480,41.016,37.109,51.270,44.434,0
1539623636.285,29.785,33.203,33.203,30.273,-7.812,0
1539623636.289,24.902,32.227,32.715,17.578,12.695,0
1539623636.293,32.227,30.762,34.668,31.250,82.520,0
1539623636.297,26.855,25.391,35.156,35.156,56.641,0
1539623636.301,25.879,28.320,37.598,32.227,60.059,0
1539623636.305,30.762,33.691,47.852,37.109,55.176,0
1539623636.309,39.062,34.180,43.457,37.598,19.043,0
1539623636.313,36.621,38.574,31.738,39.062,28.809,0
1539623636.316,41.016,41.504,26.367,44.922,43.945,0
1539623636.320,47.852,40.527,27.344,43.945,0.000,0
1539623636.324,41.016,41.016,37.109,42.480,-9.277,0
1539623636.328,41.504,41.016,38.574,45.898,34.668,0
1539623636.332,28.809,34.668,25.391,35.645,70.312,0
1539623636.336,20.996,27.832,24.414,35.645,25.879,0
1539623636.340,32.227,34.180,32.227,47.852,-46.875,0
1539623636.344,42.480,39.062,29.297,38.574,-46.387,0
1539623636.348,49.316,38.086,29.297,29.297,-32.227,0
1539623636.352,42.480,38.086,31.250,35.156,-14.160,0
1539623636.355,40.527,40.039,26.855,41.016,19.043,0
1539623636.359,40.039,42.480,30.762,42.480,-7.324,0
1539623636.363,28.320,40.039,34.668,34.180,1.465,0
1539623636.367,38.086,35.645,29.785,31.738,57.617,0
1539623636.371,46.387,38.574,34.180,36.133,68.359,0
1539623636.375,32.227,39.551,36.621,32.227,72.754,0
1539623636.379,41.992,40.039,27.344,28.320,31.250,0
1539623636.383,42.480,39.062,24.902,32.227,6.348,0
1539623636.387,30.762,35.645,26.855,33.203,22.949,0
1539623636.391,40.039,41.992,27.832,35.156,25.879,0
1539623636.395,47.363,39.551,29.297,38.086,30.762,0
