timestamps,TP9,AF7,AF8,TP10,Right AUX,Marker0
1539619890.606,20.996,41.992,42.969,17.090,0.000,0
1539619890.610,28.809,40.039,37.598,23.438,65.430,0
1539619890.614,32.227,37.598,30.762,21.973,-12.695,0
1539619890.618,26.855,42.969,34.668,14.648,-15.137,0
1539619890.622,29.785,44.434,31.738,17.578,93.262,0
1539619890.626,20.996,39.062,31.250,19.043,83.008,0
1539619890.630,18.555,40.039,33.203,12.207,65.430,0
1539619890.633,20.996,46.387,33.691,7.812,51.758,0
1539619890.637,21.484,46.387,29.785,19.043,57.617,0
1539619890.641,16.113,46.875,24.414,20.508,47.363,0
1539619890.645,20.020,47.363,28.809,21.484,72.754,0
1539619890.649,36.621,47.852,35.156,26.367,89.355,0
1539619890.653,27.832,48.828,32.227,20.996,62.012,0
1539619890.657,15.137,45.410,30.273,12.207,43.457,0
1539619890.661,25.879,43.457,36.621,10.742,23.926,0
1539619890.665,28.809,42.480,35.156,11.230,14.648,0
1539619890.669,19.043,42.480,33.203,20.508,10.254,0
1539619890.673,16.113,43.457,36.621,26.367,40.527,0
1539619890.676,22.461,43.457,36.621,21.973,104.980,0
1539619890.680,27.344,42.480,36.133,16.602,95.703,0
1539619890.684,29.785,43.945,38.086,22.949,104.492,0
1539619890.688,23.926,43.945,37.598,15.137,100.586,0
1539619890.692,15.625,44.922,36.133,8.301,9.766,0
1539619890.696,21.484,47.363,37.598,20.020,42.480,0
1539619890.700,28.809,48.828,33.691,9.766,82.520,0
1539619890.704,31.250,48.828,34.668,9.277,0.977,0
1539619890.708,25.391,48.828,40.039,26.855,17.090,0
1539619890.712,25.391,48.340,37.598,23.926,-3.418,0
1539619890.716,28.809,45.898,34.668,14.648,-50.781,0
1539619890.719,32.715,44.922,34.180,20.020,5.859,0
1539619890.723,24.414,47.363,30.273,18.066,7.324,0
1539619890.727,9.277,46.875,34.668,14.160,28.320,0
1539619890.731,17.578,45.410,33.691,10.254,60.547,0
1539619890.735,22.461,44.922,30.762,3.906,59.570,0
1539619890.739,14.648,41.992,34.668,15.137,26.367,0
1539619890.743,18.066,44.922,34.668,24.414,6.348,0
1539619890.747,21.973,45.898,33.203,20.996,23.438,0
1539619890.751,20.508,39.062,34.668,9.766,66.895,0
1539619890.755,8.789,41.992,32.227,9.766,99.121,0
1539619890.758,3.906,46.875,29.297,11.230,111.328,0
1539619890.762,20.508,43.457,32.715,9.766,58.105,0
1539619890.766,23.438,41.016,32.715,8.301,20.996,0
1539619890.770,8.301,39.551,32.715,6.836,97.656,0
1539619890.774,11.230,40.527,36.133,11.719,70.312,0
1539619890.778,15.625,42.969,41.016,3.906,37.598,0
1539619890.782,17.090,42.480,34.180,2.441,70.312,0
1539619890.786,13.672,39.551,32.715,14.648,55.176,0
1539619890.790,16.113,39.062,38.574,18.555,84.473,0
1539619890.794,20.996,41.504,37.109,16.113,71.289,0
1539619890.798,20.996,41.504,38.086,15.625,27.832,0
1539619890.801,20.020,42.969,36.621,19.043,70.312,0
1539619890.805,19.043,40.527,36.133,27.832,89.355,0
1539619890.809,17.578,37.109,39.551,22.461,51.758,0
1539619890.813,10.742,40.527,37.598,8.301,41.992,0
1539619890.817,18.555,46.387,30.762,8.789,65.430,0
1539619890.821,25.879,48.340,33.691,11.719,56.641,0
1539619890.825,15.137,45.410,36.621,10.254,-6.348,0
1539619890.829,13.672,49.316,32.715,4.395,-71.777,0
1539619890.833,24.414,47.363,38.574,21.484,1.465,0
1539619890.837,27.344,41.016,40.527,27.344,80.078,0
1539619890.841,19.043,40.039,42.969,20.996,88.867,0
1539619890.844,16.602,37.598,45.410,21.973,92.285,0
1539619890.848,15.625,35.645,44.922,36.621,69.824,0
1539619890.852,12.695,34.668,47.852,35.156,72.266,0
1539619890.856,15.137,32.715,45.410,6.348,61.523,0
1539619890.860,22.461,32.715,42.480,17.578,30.762,0
1539619890.864,24.414,33.203,46.387,27.344,27.832,0
1539619890.868,21.484,32.715,47.363,20.020,19.531,0
1539619890.872,19.531,33.691,45.410,21.484,50.293,0
1539619890.876,21.484,35.645,40.039,20.508,51.270,0
1539619890.880,22.461,37.109,35.645,18.066,14.648,0
1539619890.883,15.137,37.598,35.156,15.137,53.223,0
1539619890.887,14.648,32.715,39.062,10.254,23.438,0
1539619890.891,15.625,29.785,40.039,20.508,8.301,0
1539619890.895,16.113,37.109,28.809,15.625,74.219,0
1539619890.899,19.043,40.527,27.832,9.766,-6.836,0
1539619890.903,20.020,39.551,33.203,12.207,-17.578,0
1539619890.907,18.066,39.551,34.180,19.531,40.527,0
1539619890.911,23.926,41.992,34.180,25.391,48.340,0
1539619890.915,24.414,41.504,31.738,11.719,22.949,0
1539619890.919,20.996,39.062,31.738,13.672,11.230,0
1539619890.923,19.043,40.039,32.715,18.555,76.660,0
1539619890.926,19.531,42.969,33.203,22.949,89.844,0
1539619890.930,21.484,42.969,33.203,17.578,59.082,0
1539619890.934,26.855,41.016,33.203,8.301,63.477,0
1539619890.938,32.227,45.410,29.785,22.949,45.898,0
1539619890.942,29.785,46.387,35.156,32.715,43.945,0
1539619890.946,36.133,36.621,37.598,28.320,14.160,0
1539619890.950,40.527,38.086,31.250,28.320,24.902,0
1539619890.954,28.320,45.898,33.203,27.344,53.711,0
1539619890.958,29.297,49.316,32.715,14.160,52.734,0
1539619890.962,35.156,48.828,31.738,13.672,63.477,0
1539619890.966,29.297,46.387,30.762,18.555,44.434,0
1539619890.969,27.832,44.922,31.250,20.996,0.000,0
1539619890.973,34.180,40.039,34.668,25.391,54.688,0
1539619890.977,40.527,34.668,41.016,23.438,73.730,0
1539619890.981,40.527,42.480,34.668,24.902,14.160,0
1539619890.985,28.809,52.734,26.855,17.578,49.316,0
1539619890.989,18.555,53.711,30.273,9.277,52.246,0
1539619890.993,20.508,51.270,23.926,11.719,-21.973,0
1539619890.997,24.902,49.316,26.855,10.254,-21.484,0
1539619891.001,18.555,55.176,28.320,3.418,26.367,0
1539619891.005,18.555,59.570,18.066,4.883,56.641,0
1539619891.008,23.438,57.617,19.531,3.418,92.773,0
1539619891.012,12.207,49.805,21.973,-1.465,155.273,0
1539619891.016,15.625,47.852,27.832,2.930,59.082,0
1539619891.020,23.926,54.199,28.809,8.301,-4.395,0
1539619891.024,25.391,52.734,26.367,14.648,38.086,0
1539619891.028,24.902,51.270,28.809,18.555,47.363,0
1539619891.032,29.785,52.246,30.762,11.719,67.383,0
1539619891.036,30.273,50.781,29.785,0.977,85.938,0
1539619891.040,21.973,49.316,27.832,3.418,81.543,0
1539619891.044,26.855,47.852,26.855,6.836,54.688,0
1539619891.048,27.832,49.316,30.762,10.254,70.801,0
1539619891.051,21.973,49.805,31.250,9.277,93.262,0
1539619891.055,25.879,43.945,35.645,7.812,20.508,0
1539619891.059,31.250,41.992,36.621,11.230,-17.578,0
1539619891.063,30.762,47.852,27.832,6.348,12.207,0
1539619891.067,25.879,49.805,23.438,12.207,41.016,0
1539619891.071,20.508,50.293,25.879,16.113,38.574,0
1539619891.075,21.973,47.852,34.180,7.324,64.453,0
1539619891.079,26.855,43.945,34.180,14.648,45.410,0
1539619891.083,23.926,43.945,29.785,14.160,61.523,0
1539619891.087,26.367,46.387,32.227,3.418,78.613,0
1539619891.091,20.508,41.992,32.715,19.043,-3.418,0
1539619891.094,12.695,40.039,29.785,17.578,-37.109,0
1539619891.098,25.391,46.875,30.762,8.789,4.883,0
1539619891.102,29.785,51.758,27.832,20.020,49.316,0
1539619891.106,23.926,51.270,31.738,11.719,1.953,0
1539619891.110,15.625,49.316,32.715,0.488,30.273,0
1539619891.114,12.207,48.340,37.109,8.301,96.680,0
1539619891.118,17.090,48.828,36.133,12.695,107.422,0
1539619891.122,30.273,48.828,30.273,13.672,60.059,0
1539619891.126,38.574,46.387,30.762,25.879,40.039,0
1539619891.130,33.203,48.828,31.250,22.949,69.824,0
1539619891.133,23.438,49.316,39.062,18.555,-2.441,0
1539619891.137,21.973,49.316,39.551,22.461,7.812,0
1539619891.141,23.438,51.270,36.621,22.949,-0.488,0
1539619891.145,30.762,46.875,38.574,22.949,22.461,0
1539619891.149,37.109,48.340,38.574,21.973,41.504,0
1539619891.153,33.203,55.664,37.109,17.578,9.766,0
1539619891.157,34.180,54.199,34.668,14.648,45.898,0
1539619891.161,26.855,50.293,32.715,17.090,35.645,0
1539619891.165,24.902,51.270,33.203,12.207,23.438,0
1539619891.169,28.809,52.246,30.273,7.812,14.648,0
1539619891.173,20.996,51.758,39.551,16.602,-12.207,0
1539619891.176,22.949,49.805,36.621,26.855,-23.926,0
1539619891.180,35.645,54.688,25.391,19.531,56.641,0
1539619891.184,25.391,52.734,35.645,13.672,47.852,0
1539619891.188,21.484,48.340,39.062,21.484,7.812,0
1539619891.192,31.250,49.316,32.715,23.438,35.645,0
1539619891.196,25.391,42.480,33.691,16.113,79.102,0
1539619891.200,33.691,43.945,37.109,17.578,65.430,0
1539619891.204,34.180,47.852,32.715,23.438,23.438,0
1539619891.208,21.484,46.387,31.250,19.531,-23.926,0
1539619891.212,21.973,47.852,34.668,10.742,0.977,0
1539619891.216,29.297,45.410,31.738,18.555,65.918,0
1539619891.219,27.832,45.410,35.645,11.719,36.133,0
1539619891.223,21.484,48.828,37.109,15.137,26.367,0
1539619891.227,29.785,47.363,24.414,21.484,43.945,0
1539619891.231,29.297,45.410,28.320,22.949,55.664,0
1539619891.235,23.926,46.387,31.738,26.855,56.152,0
1539619891.239,26.855,44.434,30.762,25.391,50.293,0
1539619891.243,28.320,44.922,33.691,26.367,38.574,0
1539619891.247,19.531,46.875,31.738,12.695,57.129,0
1539619891.251,12.207,41.016,28.809,1.465,25.879,0
1539619891.255,15.625,36.133,30.273,11.719,-10.254,0
1539619891.258,20.508,41.504,28.320,13.184,24.902,0
1539619891.262,18.066,44.434,28.809,14.648,27.832,0
1539619891.266,23.438,43.457,32.227,19.531,39.551,0
1539619891.270,20.996,43.457,30.762,15.625,48.828,0
1539619891.274,12.695,42.969,25.391,11.719,61.035,0
1539619891.278,13.672,40.039,29.785,12.695,107.910,0
1539619891.282,15.137,40.527,38.574,9.766,43.945,0
1539619891.286,22.949,42.969,35.645,14.648,-27.832,0
1539619891.290,29.297,38.574,34.180,18.555,32.715,0
1539619891.294,29.297,42.480,33.203,20.508,87.402,0
1539619891.298,17.090,48.340,30.273,11.719,72.266,0
1539619891.301,10.742,45.898,31.250,-5.371,57.129,0
1539619891.305,7.812,48.340,29.785,-10.742,-34.180,0
1539619891.309,-2.930,47.852,31.250,-13.672,16.602,0
1539619891.313,2.930,45.410,32.715,-6.348,62.012,0
1539619891.317,8.301,48.340,30.273,-7.324,44.922,0
1539619891.321,0.000,47.852,27.344,-10.254,35.156,0
1539619891.325,4.883,43.457,27.344,-3.418,73.242,0
1539619891.329,8.789,44.434,28.809,4.883,74.219,0
1539619891.333,13.184,46.387,31.250,-2.441,-34.180,0
1539619891.337,10.742,42.969,32.715,-6.348,-1.465,0
1539619891.341,0.977,41.016,28.809,0.488,32.227,0
1539619891.344,0.977,38.086,35.645,-4.395,22.461,0
1539619891.348,14.160,35.645,36.133,0.000,37.598,0
1539619891.352,23.926,42.969,27.344,12.207,35.645,0
1539619891.356,18.555,43.457,27.344,10.254,79.102,0
1539619891.360,17.090,42.969,24.902,10.742,39.551,0
1539619891.364,16.602,43.945,26.855,11.719,5.859,0
1539619891.368,18.555,42.480,27.832,6.836,50.293,0
1539619891.372,27.832,44.434,31.250,15.625,63.965,0
1539619891.376,24.902,43.945,33.203,16.602,20.996,0
1539619891.380,19.531,43.457,27.344,5.859,26.367,0
1539619891.383,20.996,44.434,29.297,7.812,69.336,0
1539619891.387,26.855,43.457,30.273,19.043,52.734,0
1539619891.391,27.344,42.480,28.320,18.066,52.734,0
1539619891.395,26.367,44.434,28.809,9.277,9.766,0
1539619891.399,34.668,40.039,32.227,14.648,-6.348,0
1539619891.403,33.203,35.645,37.598,22.949,47.363,0
1539619891.407,27.344,42.480,29.785,23.438,83.496,0
1539619891.411,33.691,47.363,28.320,27.832,56.641,0
1539619891.415,41.504,46.387,31.250,26.855,36.621,0
1539619891.419,45.898,43.945,31.738,25.391,27.832,0
1539619891.423,35.156,41.504,29.785,28.809,50.293,0
1539619891.426,29.785,46.387,22.949,26.367,67.383,0
1539619891.430,34.180,47.852,27.344,18.066,18.555,0
1539619891.434,37.598,41.504,34.668,14.648,32.715,0
1539619891.438,33.691,42.480,33.691,14.648,89.844,0
1539619891.442,21.484,42.480,35.156,13.184,45.898,0
1539619891.446,27.344,43.945,34.668,14.160,11.719,0
1539619891.450,34.180,41.016,30.273,15.137,19.043,0
1539619891.454,30.762,37.109,32.227,18.555,52.246,0
1539619891.458,24.902,40.527,31.250,13.672,86.914,0
1539619891.462,22.461,40.527,34.180,16.602,88.379,0
1539619891.466,25.879,38.086,34.668,22.461,20.996,0
1539619891.469,30.273,43.457,29.297,18.555,-31.738,0
1539619891.473,25.391,45.898,32.715,26.855,35.156,0
1539619891.477,24.414,44.434,28.320,20.996,45.410,0
1539619891.481,29.297,41.992,28.809,19.531,18.555,0
1539619891.485,26.367,40.527,30.762,15.137,27.344,0
1539619891.489,26.855,39.551,22.461,16.113,48.340,0
1539619891.493,41.016,39.062,25.879,29.297,75.195,0
1539619891.497,37.598,39.062,28.809,26.855,50.293,0
1539619891.501,16.602,40.527,27.344,21.484,29.297,0
1539619891.505,21.484,43.457,30.273,26.367,10.742,0
1539619891.508,30.762,44.434,30.762,28.809,-5.859,0
1539619891.512,23.926,39.551,29.297,18.066,14.160,0
1539619891.516,20.020,41.504,26.855,20.996,63.965,0
1539619891.520,22.949,46.387,36.133,24.414,29.785,0
1539619891.524,23.438,42.969,38.574,20.996,-3.906,0
1539619891.528,35.156,41.992,30.273,22.461,67.383,0
1539619891.532,35.156,42.969,29.297,20.996,73.242,0
1539619891.536,20.508,45.410,24.414,17.090,12.207,0
1539619891.540,22.461,45.898,24.414,16.113,38.574,0
1539619891.544,21.973,46.387,27.344,16.602,56.641,0
1539619891.548,16.113,47.852,25.391,12.207,47.852,0
1539619891.551,21.484,45.410,22.949,14.648,38.086,0
1539619891.555,29.297,45.898,24.414,18.066,66.406,0
1539619891.559,29.297,45.410,26.855,20.508,82.520,0
1539619891.563,19.043,43.945,25.879,21.484,77.637,0
1539619891.567,18.555,50.781,24.414,21.973,119.629,0
1539619891.571,25.879,47.363,23.926,22.949,53.711,0
1539619891.575,28.809,42.480,21.973,17.578,-25.879,0
1539619891.579,25.391,43.945,27.832,15.137,-1.465,0
1539619891.583,24.902,42.969,30.762,15.625,44.922,0
1539619891.587,26.855,44.922,25.391,15.625,54.199,0
1539619891.591,31.250,40.527,26.367,22.949,45.898,0
1539619891.594,29.297,43.457,23.926,17.578,59.570,0
1539619891.598,20.020,49.316,23.926,9.277,20.508,0
1539619891.602,22.949,47.852,24.414,21.484,17.578,0
1539619891.606,20.020,45.898,25.879,21.484,18.066,0
1539619891.610,20.996,46.875,28.809,21.973,20.508,1
1539619891.614,25.879,47.852,26.855,23.926,4.883,0
1539619891.618,27.344,44.434,32.715,17.090,-18.066,0
1539619891.622,27.832,40.527,34.668,15.625,46.875,0
1539619891.626,28.809,44.434,33.691,23.438,69.336,0
1539619891.630,28.320,45.410,35.645,33.691,10.254,0
1539619891.633,28.320,43.457,30.762,27.832,-0.977,0
1539619891.637,22.461,42.480,31.250,22.461,53.223,0
1539619891.641,23.438,44.434,36.133,28.809,76.660,0
1539619891.645,24.414,42.969,28.809,25.391,11.719,0
1539619891.649,26.367,38.086,27.344,21.973,-1.465,0
1539619891.653,28.320,42.480,32.227,24.414,19.531,0
1539619891.657,26.855,45.410,33.691,30.273,-17.090,0
1539619891.661,31.250,44.434,33.203,28.809,-5.859,0
1539619891.665,22.949,44.922,34.180,19.531,51.270,0
1539619891.669,20.996,43.945,33.203,19.043,108.887,0
1539619891.673,20.996,40.039,31.738,24.902,80.566,0
1539619891.676,14.648,39.551,33.203,20.020,33.691,0
1539619891.680,17.578,42.969,31.250,14.648,69.336,0
1539619891.684,25.391,42.480,32.715,17.090,40.527,0
1539619891.688,24.414,42.480,34.180,23.926,32.227,0
1539619891.692,12.207,42.969,33.691,31.250,34.180,0
1539619891.696,15.625,41.016,39.551,20.996,27.344,0
1539619891.700,21.484,42.480,41.992,6.836,14.648,0
1539619891.704,20.508,44.434,34.180,20.996,18.066,0
1539619891.708,21.973,41.992,33.691,20.508,5.859,0
1539619891.712,17.090,42.969,34.180,11.230,-4.395,0
1539619891.716,18.066,41.504,33.203,20.020,59.082,0
1539619891.719,16.113,35.645,31.738,20.508,70.312,0
1539619891.723,12.207,43.457,29.785,12.207,59.570,0
1539619891.727,17.090,49.805,33.691,18.555,57.129,0
1539619891.731,22.461,47.363,33.203,29.297,41.016,0
1539619891.735,23.926,46.387,25.879,18.555,-3.906,0
1539619891.739,21.484,44.922,27.344,17.090,10.742,0
1539619891.743,22.949,44.434,33.203,30.273,25.879,0
1539619891.747,35.156,45.410,32.715,31.250,37.109,0
1539619891.751,32.715,48.340,34.668,20.020,71.777,0
1539619891.755,19.531,47.852,35.645,19.531,62.988,0
1539619891.758,18.066,42.480,38.574,20.508,46.387,0
1539619891.762,20.996,41.992,37.598,17.578,64.941,0
1539619891.766,19.043,47.363,28.320,20.020,98.145,0
1539619891.770,7.324,44.434,32.715,30.762,65.918,0
1539619891.774,19.531,38.086,35.645,30.273,27.832,0
1539619891.778,29.297,42.969,33.203,19.531,22.949,0
1539619891.782,17.090,47.852,32.227,23.926,-30.273,0
1539619891.786,18.066,45.898,35.645,25.391,5.371,0
1539619891.790,23.926,47.852,35.156,15.625,55.664,0
1539619891.794,20.996,47.852,32.227,17.090,88.379,0
1539619891.798,18.555,45.410,30.273,16.602,80.566,0
1539619891.801,20.508,47.363,35.156,14.160,69.824,0
1539619891.805,20.508,41.992,38.086,12.207,28.809,0
1539619891.809,24.902,41.016,36.133,7.812,3.906,0
1539619891.813,20.996,42.969,35.156,19.043,8.789,0
1539619891.817,8.301,40.039,37.598,15.625,13.672,0
1539619891.821,12.207,41.016,39.062,11.230,53.711,0
1539619891.825,21.973,43.945,30.762,12.695,35.645,0
1539619891.829,20.508,40.527,31.250,18.555,6.836,0
1539619891.833,20.020,41.992,36.133,22.949,-12.695,0
1539619891.837,19.043,45.410,33.203,11.719,27.832,0
1539619891.841,15.625,45.410,31.738,9.277,3.906,0
1539619891.844,16.602,43.945,32.227,20.996,6.836,0
1539619891.848,12.695,41.992,28.320,16.602,80.566,0
1539619891.852,8.789,41.992,28.320,10.254,63.477,0
1539619891.856,11.230,41.504,34.180,22.461,65.918,0
1539619891.860,8.301,42.969,36.621,15.137,96.680,0
1539619891.864,13.184,43.457,36.133,12.207,64.453,0
1539619891.868,24.414,42.969,32.227,27.832,29.785,0
1539619891.872,22.461,41.992,37.598,25.391,54.199,0
1539619891.876,20.508,40.039,39.551,18.555,55.176,0
1539619891.880,20.996,38.086,28.809,26.855,24.414,0
1539619891.883,22.461,35.156,30.762,27.344,-6.836,0
1539619891.887,25.879,39.062,36.133,24.414,-15.625,0
1539619891.891,27.832,37.598,35.156,26.855,-6.348,0
1539619891.895,24.414,36.133,34.668,26.367,19.531,0
1539619891.899,12.695,42.480,30.273,26.855,-6.348,0
1539619891.903,22.949,44.434,28.809,20.508,44.922,0
1539619891.907,23.926,43.945,31.250,10.742,74.707,0
1539619891.911,18.066,43.457,25.391,17.090,45.410,0
1539619891.915,30.273,42.969,28.320,29.785,28.320,0
1539619891.919,27.344,43.457,33.691,20.996,9.766,0
1539619891.923,16.602,45.898,31.250,6.836,14.160,0
1539619891.926,15.137,45.410,29.297,9.277,20.508,0
1539619891.930,19.531,45.898,26.855,20.996,49.805,0
1539619891.934,31.250,44.922,35.156,20.996,71.289,0
1539619891.938,29.297,42.969,37.598,14.160,36.133,0
1539619891.942,25.879,42.969,25.391,25.879,-4.395,0
1539619891.946,26.367,41.504,24.902,27.832,84.473,0
1539619891.950,23.438,39.551,29.297,18.066,48.828,0
1539619891.954,21.484,39.551,30.273,18.555,22.949,0
1539619891.958,21.484,45.898,24.414,14.160,75.684,0
1539619891.962,20.996,46.387,22.461,14.648,32.227,0
1539619891.966,29.297,42.969,27.832,19.531,-15.137,0
1539619891.969,27.344,41.992,32.227,14.648,-27.832,0
1539619891.973,9.766,41.504,29.785,6.836,39.062,0
1539619891.977,8.301,41.016,28.809,6.348,68.848,0
1539619891.981,17.578,42.969,29.785,6.348,50.293,0
1539619891.985,15.625,44.434,29.785,4.395,11.719,0
1539619891.989,21.484,47.363,32.227,12.207,42.969,0
1539619891.993,24.902,49.316,29.785,10.254,100.098,0
1539619891.997,17.090,45.410,31.250,3.418,86.914,0
1539619892.001,23.438,44.922,31.738,12.695,11.719,0
1539619892.005,26.367,46.387,26.367,16.113,11.230,0
1539619892.008,15.137,42.969,30.762,8.301,83.984,0
1539619892.012,14.648,43.457,31.250,16.602,-1.953,0
1539619892.016,22.949,44.434,31.250,23.926,-73.730,0
1539619892.020,23.926,43.945,31.738,18.066,21.484,0
1539619892.024,20.996,48.828,29.785,14.160,63.965,0
1539619892.028,19.531,51.270,33.203,12.207,48.828,0
1539619892.032,12.207,49.805,35.156,4.883,50.293,0
1539619892.036,14.648,48.340,34.180,0.000,61.523,0
1539619892.040,25.879,51.270,28.809,15.625,120.117,0
1539619892.044,22.461,49.805,37.598,25.879,93.262,0
1539619892.048,10.742,41.504,45.410,9.277,101.074,0
1539619892.051,16.602,40.039,38.574,12.207,133.789,0
1539619892.055,20.508,38.086,43.945,17.578,76.660,0
1539619892.059,12.695,36.621,40.527,6.836,38.574,0
1539619892.063,13.672,36.133,37.598,8.301,10.254,0
1539619892.067,12.207,36.621,41.992,8.301,10.254,0
1539619892.071,10.742,39.062,43.457,14.160,24.414,0
1539619892.075,13.184,39.551,38.086,13.184,21.484,0
1539619892.079,20.996,36.133,37.109,20.996,87.891,0
1539619892.083,20.996,35.156,38.574,26.367,48.340,0
1539619892.087,22.461,38.086,37.598,17.578,5.859,0
1539619892.091,33.203,36.621,39.062,21.484,35.645,0
1539619892.094,27.832,35.156,41.504,27.344,19.043,0
1539619892.098,20.020,41.016,39.551,24.902,63.965,0
1539619892.102,25.879,42.969,35.645,20.996,84.473,0
1539619892.106,23.438,42.480,41.016,21.973,30.762,0
1539619892.110,20.996,43.457,37.598,23.438,20.020,0
1539619892.114,25.391,42.480,29.785,28.809,23.438,0
1539619892.118,22.949,39.062,34.668,20.020,1.465,0
1539619892.122,20.996,40.039,36.621,21.973,57.617,0
1539619892.126,25.879,44.922,38.086,30.273,120.605,0
1539619892.130,34.668,43.945,38.574,22.461,16.113,0
1539619892.133,33.691,41.992,37.598,25.391,-19.531,0
1539619892.137,30.273,41.504,37.109,33.203,14.160,0
1539619892.141,33.691,41.504,36.621,22.461,3.418,0
1539619892.145,30.273,39.551,35.645,18.066,28.320,0
1539619892.149,30.273,40.527,35.645,20.508,19.531,0
1539619892.153,30.273,39.062,35.156,26.367,33.691,0
1539619892.157,23.926,40.039,33.203,24.414,60.059,0
1539619892.161,25.879,43.945,30.762,28.320,74.707,0
1539619892.165,24.902,41.016,41.504,27.832,86.914,0
1539619892.169,22.949,39.551,40.039,28.809,60.547,0
1539619892.173,23.438,39.551,32.715,35.645,-17.578,0
1539619892.176,24.414,37.109,39.062,19.531,-42.969,0
1539619892.180,31.250,39.551,35.645,15.137,30.273,0
1539619892.184,28.320,41.992,33.203,23.926,62.012,0
1539619892.188,20.996,41.016,34.180,15.625,49.805,0
1539619892.192,26.367,38.086,31.738,17.578,14.160,0
1539619892.196,34.180,34.668,28.809,27.832,-3.418,0
1539619892.200,31.738,40.039,29.297,23.438,47.363,0
1539619892.204,24.902,42.480,27.832,19.531,65.430,0
1539619892.208,31.738,39.551,27.832,20.508,62.988,0
1539619892.212,33.691,42.969,30.762,22.949,35.645,0
1539619892.216,32.227,41.992,37.598,20.020,19.043,0
1539619892.219,27.832,43.457,36.133,14.648,94.238,0
1539619892.223,23.438,41.992,24.902,18.555,124.023,0
1539619892.227,31.738,41.992,28.809,19.531,79.590,0
1539619892.231,26.855,43.457,30.273,20.996,103.516,0
1539619892.235,15.137,40.527,29.297,13.184,38.574,0
1539619892.239,14.160,38.574,28.809,15.625,27.832,0
1539619892.243,21.484,40.039,28.809,19.531,102.539,0
1539619892.247,31.738,40.527,27.832,16.602,61.523,0
1539619892.251,28.320,41.992,26.367,16.113,39.551,0
1539619892.255,24.902,44.434,26.367,8.789,105.957,0
1539619892.258,19.531,44.434,27.344,9.766,129.395,0
1539619892.262,18.066,39.551,30.273,14.648,53.223,0
1539619892.266,21.973,38.086,28.809,20.996,0.000,0
1539619892.270,23.926,42.480,23.926,15.137,25.879,0
1539619892.274,21.484,45.410,30.762,16.602,43.457,0
1539619892.278,22.461,47.363,37.598,13.672,17.090,0
1539619892.282,25.391,44.434,31.738,10.742,56.152,0
1539619892.286,21.973,40.527,34.180,22.461,107.910,0
1539619892.290,30.273,44.434,32.227,22.461,69.824,0
1539619892.294,27.832,49.805,24.414,12.207,20.020,0
1539619892.298,29.785,49.316,24.414,8.301,59.570,0
1539619892.301,37.109,49.316,27.832,20.020,47.852,0
1539619892.305,31.250,47.852,28.320,23.926,2.441,0
1539619892.309,28.809,42.480,27.832,23.926,-8.301,0
1539619892.313,25.391,42.480,25.879,20.508,0.000,0
1539619892.317,20.020,43.457,29.785,10.254,15.625,0
1539619892.321,32.715,43.457,33.691,20.996,15.625,0
1539619892.325,31.738,40.039,30.273,14.648,66.406,0
1539619892.329,21.484,38.574,31.250,7.324,61.523,0
1539619892.333,25.879,43.945,31.250,19.531,37.598,0
1539619892.337,30.762,47.363,27.832,15.625,64.941,0
1539619892.341,32.227,45.410,30.762,17.090,72.266,0
1539619892.344,23.438,43.945,31.250,19.531,35.645,0
1539619892.348,23.926,44.922,32.227,18.066,37.109,0
1539619892.352,34.180,40.039,35.645,23.438,70.312,0
1539619892.356,28.320,39.551,33.203,20.020,61.035,0
1539619892.360,29.785,40.527,30.762,23.438,27.344,0
1539619892.364,34.668,41.504,31.250,31.738,63.965,0
1539619892.368,27.344,42.969,31.738,20.508,117.676,0
1539619892.372,31.250,42.969,30.762,27.344,32.227,0
1539619892.376,34.668,40.039,32.715,32.715,6.836,0
1539619892.380,31.738,41.992,31.250,20.020,54.199,0
1539619892.383,28.809,41.992,37.109,18.066,26.855,0
1539619892.387,27.832,41.016,37.598,18.555,-1.953,0
1539619892.391,25.879,42.480,31.738,27.344,56.152,0
1539619892.395,20.996,41.504,37.109,28.809,52.246,0
1539619892.399,27.832,40.039,37.109,23.926,33.203,0
1539619892.403,32.715,37.598,35.645,26.855,67.871,0
1539619892.407,20.508,44.922,34.668,21.484,84.473,0
1539619892.411,20.996,45.410,36.621,26.367,57.617,0
1539619892.415,20.508,42.480,37.598,24.414,41.016,0
1539619892.419,15.137,45.410,35.156,19.043,48.828,0
1539619892.423,17.578,42.969,36.621,21.484,18.555,0
1539619892.426,20.996,41.016,37.598,21.484,46.387,0
1539619892.430,20.508,41.016,36.621,20.996,19.531,0
1539619892.434,19.043,41.016,33.203,17.578,28.320,0
1539619892.438,16.602,40.527,32.227,22.461,57.129,0
1539619892.442,14.648,40.527,33.691,15.625,-17.090,0
1539619892.446,21.973,37.598,36.133,13.672,16.113,0
1539619892.450,27.344,38.086,40.039,18.066,58.594,0
1539619892.454,18.066,37.598,40.527,15.137,47.852,0
1539619892.458,17.090,34.668,32.227,23.926,30.273,0
1539619892.462,19.531,41.992,32.227,13.672,49.316,0
1539619892.466,17.090,44.434,34.180,12.695,37.109,0
1539619892.469,14.160,42.480,34.668,26.367,47.852,0
1539619892.473,15.625,42.480,32.227,20.996,72.754,0
1539619892.477,19.043,41.016,30.273,21.484,91.309,0
1539619892.481,24.902,40.039,32.715,28.320,47.363,0
1539619892.485,22.461,44.434,33.691,24.902,-37.109,0
1539619892.489,21.973,41.504,34.180,21.484,0.000,0
1539619892.493,26.367,36.621,31.250,32.227,69.824,0
1539619892.497,21.484,48.340,27.832,20.996,55.664,0
1539619892.501,14.160,50.781,28.320,7.812,29.785,0
1539619892.505,11.230,49.805,31.250,13.184,37.598,0
1539619892.508,10.254,52.246,28.320,5.371,50.293,0
1539619892.512,7.324,49.805,31.250,5.859,75.195,0
1539619892.516,11.719,49.805,33.203,9.277,73.730,0
1539619892.520,14.160,50.781,27.832,6.836,70.312,0
1539619892.524,15.625,51.270,28.320,20.020,16.602,0
1539619892.528,18.066,47.363,29.785,16.113,-38.086,0
1539619892.532,20.508,44.434,32.715,5.859,48.340,0
1539619892.536,19.531,50.293,33.691,11.719,82.031,0
1539619892.540,19.531,51.270,31.250,15.137,-6.348,0
1539619892.544,24.902,49.316,29.785,16.113,-2.441,0
1539619892.548,21.973,47.363,35.156,21.484,11.230,0
1539619892.551,25.391,44.434,34.668,22.949,-13.672,0
1539619892.555,28.809,43.457,30.273,24.414,-3.906,0
1539619892.559,27.344,43.457,33.691,17.090,28.809,0
1539619892.563,33.203,42.969,33.203,19.043,49.805,0
1539619892.567,31.250,42.480,38.086,20.020,57.617,0
1539619892.571,21.484,42.969,39.551,15.137,26.367,0
1539619892.575,25.391,43.457,28.809,26.855,35.645,0
1539619892.579,31.738,46.387,28.320,27.344,61.035,0
1539619892.583,31.250,48.828,31.738,15.625,2.930,0
1539619892.587,32.715,44.922,32.715,19.531,-37.109,0
1539619892.591,31.738,42.480,31.250,26.855,-14.648,0
1539619892.594,26.367,41.504,30.273,23.926,22.461,0
1539619892.598,27.832,42.969,27.344,19.531,-8.301,0
1539619892.602,22.461,44.434,27.832,20.508,6.348,0
1539619892.606,21.484,45.410,34.180,25.391,66.895,0
1539619892.610,28.320,46.875,33.691,24.414,50.781,0
1539619892.614,26.855,45.898,33.691,19.043,40.527,0
1539619892.618,19.043,44.922,40.527,14.648,79.102,0
1539619892.622,19.531,43.945,33.203,24.902,80.078,0
1539619892.626,22.461,43.945,32.227,30.273,79.590,0
1539619892.630,23.926,41.992,38.574,23.438,78.613,0
1539619892.633,24.414,40.527,38.574,20.996,63.477,0
1539619892.637,18.066,37.598,34.668,24.414,62.988,0
1539619892.641,16.113,40.039,31.738,25.391,44.434,0
1539619892.645,18.555,45.898,32.715,19.531,96.680,0
1539619892.649,22.949,48.828,34.668,18.555,128.418,0
1539619892.653,26.367,46.875,35.645,19.043,85.938,0
1539619892.657,20.020,42.969,35.156,8.301,69.336,0
1539619892.661,20.996,44.922,32.715,8.789,30.762,0
1539619892.665,17.090,43.945,32.715,19.043,26.855,0
1539619892.669,11.230,42.480,35.156,14.160,-21.484,0
1539619892.673,12.207,41.992,32.715,23.926,-41.016,0
1539619892.676,16.113,37.598,39.062,19.043,0.977,0
1539619892.680,19.043,37.109,39.062,6.836,20.508,0
1539619892.684,20.020,41.016,25.879,14.160,33.691,0
1539619892.688,19.531,39.551,26.855,19.531,46.875,0
1539619892.692,21.484,44.922,32.715,20.996,34.668,0
1539619892.696,23.926,48.340,31.250,17.090,35.156,0
1539619892.700,22.461,47.363,29.297,17.090,58.594,0
1539619892.704,21.973,48.340,30.273,15.137,66.895,0
1539619892.708,24.414,45.898,27.344,17.090,70.801,0
1539619892.712,24.414,46.387,27.832,22.461,71.289,0
1539619892.716,27.344,46.387,32.715,22.461,87.402,0
1539619892.719,26.855,44.922,33.691,20.020,42.969,0
1539619892.723,26.855,46.875,30.762,20.996,53.223,0
1539619892.727,28.809,47.363,30.762,21.484,80.078,0
1539619892.731,27.832,44.922,32.715,21.484,66.895,0
1539619892.735,22.949,45.898,28.320,19.531,49.805,0
1539619892.739,25.879,45.898,27.832,17.578,16.113,0
1539619892.743,34.668,43.457,30.762,15.137,32.227,0
1539619892.747,31.738,41.504,31.250,6.348,8.301,0
1539619892.751,21.484,38.086,32.227,12.695,-2.441,0
1539619892.755,26.855,43.945,26.367,19.531,34.180,0
1539619892.758,20.996,46.875,33.691,12.695,45.410,0
1539619892.762,10.742,46.387,35.156,10.254,13.672,0
1539619892.766,24.414,48.828,23.926,14.648,11.230,0
1539619892.770,25.879,47.852,27.832,18.555,25.879,0
1539619892.774,17.578,44.434,27.832,15.625,2.441,0
1539619892.778,16.602,41.992,26.367,10.254,6.348,0
1539619892.782,17.578,41.992,27.832,8.789,-10.742,0
1539619892.786,19.531,43.457,26.855,8.789,-17.578,0
1539619892.790,21.484,41.992,26.367,16.113,56.641,0
1539619892.794,21.973,35.645,29.785,14.648,100.586,0
1539619892.798,20.020,37.598,31.738,13.672,72.754,0
1539619892.801,19.531,44.922,31.738,13.672,55.664,0
1539619892.805,17.090,41.992,32.715,13.184,43.945,0
1539619892.809,13.672,38.574,36.133,18.555,-2.441,0
1539619892.813,20.996,43.457,29.297,19.531,0.000,0
1539619892.817,19.043,43.945,25.879,18.066,5.371,0
1539619892.821,10.254,41.504,28.320,11.719,15.625,0
1539619892.825,8.301,37.598,27.832,11.230,27.832,0
1539619892.829,7.812,36.133,27.344,18.555,41.016,0
1539619892.833,7.812,37.109,29.297,14.160,-0.977,0
1539619892.837,10.254,38.574,29.297,14.160,-4.395,0
1539619892.841,14.160,40.527,32.715,21.973,65.918,0
1539619892.844,13.184,41.992,35.645,31.250,54.199,0
1539619892.848,15.625,42.969,28.809,30.273,49.805,0
1539619892.852,13.184,41.992,29.297,17.578,105.469,0
1539619892.856,5.371,41.016,35.156,15.137,84.473,0
1539619892.860,6.836,37.109,29.785,20.020,18.066,0
1539619892.864,9.277,39.551,29.297,21.973,23.438,0
1539619892.868,11.230,40.039,34.180,20.020,81.055,0
1539619892.872,14.160,34.668,32.227,19.043,82.031,0
1539619892.876,16.113,39.062,35.645,20.508,61.523,0
1539619892.880,15.137,41.504,31.738,19.043,33.203,0
1539619892.883,9.766,40.527,23.926,16.602,45.410,0
1539619892.887,8.301,40.527,25.879,15.625,63.965,0
1539619892.891,10.742,40.527,25.391,15.625,1.465,0
1539619892.895,12.207,39.551,27.832,14.648,23.926,0
1539619892.899,10.254,40.527,29.297,14.160,78.613,0
1539619892.903,10.254,42.480,26.855,16.113,44.434,0
1539619892.907,11.230,41.504,25.391,6.348,28.809,0
1539619892.911,15.137,39.551,25.879,5.859,30.762,0
1539619892.915,19.043,41.016,25.879,13.184,19.043,0
1539619892.919,16.113,42.480,28.809,12.695,43.945,0
1539619892.923,14.160,37.598,30.762,15.625,80.078,0
1539619892.926,17.578,37.598,30.762,18.555,90.332,0
1539619892.930,15.625,44.922,30.762,20.996,77.148,0
1539619892.934,14.160,43.457,30.762,21.484,46.387,0
1539619892.938,13.672,42.480,32.715,18.555,31.738,0
1539619892.942,8.789,42.969,35.645,13.672,24.902,0
1539619892.946,4.883,39.551,30.273,12.695,-22.949,0
1539619892.950,7.324,42.969,29.297,12.695,10.742,0
1539619892.954,9.766,44.922,34.668,13.672,21.973,0
1539619892.958,8.301,41.504,31.738,18.555,29.785,0
1539619892.962,6.836,41.504,32.227,17.090,78.125,0
1539619892.966,11.719,41.504,33.691,19.531,37.109,0
1539619892.969,18.555,41.016,34.668,27.344,27.344,0
1539619892.973,17.578,41.016,35.645,23.438,35.156,0
1539619892.977,17.578,37.109,37.598,19.531,-14.160,0
1539619892.981,23.926,38.574,37.598,25.391,7.324,0
1539619892.985,24.902,45.410,32.715,23.438,121.582,1
1539619892.989,15.625,45.410,31.250,15.625,128.418,0
1539619892.993,12.207,42.480,32.715,19.531,74.219,0
1539619892.997,18.066,44.922,28.809,19.043,25.391,0
1539619893.001,20.020,46.387,31.738,20.508,13.672,0
1539619893.005,18.555,44.922,34.180,25.879,44.922,0
1539619893.008,21.484,45.410,32.715,23.438,6.348,0
1539619893.012,15.625,45.410,34.180,19.531,-10.742,0
1539619893.016,9.766,43.457,34.180,21.484,53.711,0
1539619893.020,13.184,41.504,34.668,20.020,84.961,0
1539619893.024,11.230,40.527,35.645,16.602,81.543,0
1539619893.028,8.789,42.480,37.598,15.137,54.688,0
1539619893.032,12.695,43.945,39.062,18.555,6.348,0
1539619893.036,16.113,39.551,39.062,23.438,45.410,0
1539619893.040,12.695,40.039,38.574,19.043,70.801,0
1539619893.044,11.230,45.898,36.621,20.508,75.684,0
1539619893.048,18.555,47.363,31.738,21.484,96.191,0
1539619893.051,18.555,46.875,28.809,17.578,64.941,0
1539619893.055,14.648,44.922,31.250,20.508,26.367,0
1539619893.059,17.578,42.969,33.203,21.484,44.922,0
1539619893.063,21.973,42.480,31.738,16.602,19.531,0
1539619893.067,18.555,42.480,30.762,21.973,-6.348,0
1539619893.071,18.555,41.992,36.621,17.578,4.395,0
1539619893.075,25.879,43.457,35.156,17.578,-22.949,0
1539619893.079,22.949,42.969,32.227,31.250,18.066,0
1539619893.083,21.973,44.434,33.691,26.855,53.223,0
1539619893.087,21.973,45.898,37.598,31.738,49.805,0
1539619893.091,17.578,43.457,37.109,32.715,37.598,0
1539619893.094,12.207,42.480,31.250,25.391,35.156,0
1539619893.098,14.648,43.457,31.250,24.414,-9.277,0
1539619893.102,18.066,40.039,32.715,21.973,22.949,0
1539619893.106,16.602,38.086,32.227,27.832,23.438,0
1539619893.110,16.113,41.992,32.227,29.297,0.977,0
1539619893.114,15.137,41.992,29.297,19.043,14.648,0
1539619893.118,15.625,42.480,24.902,15.137,15.625,0
1539619893.122,21.973,43.457,25.879,17.578,60.547,0
1539619893.126,19.531,42.969,31.250,18.066,49.805,0
1539619893.130,15.137,42.969,32.715,15.137,30.762,0
1539619893.133,15.625,44.922,34.668,20.020,-46.387,0
1539619893.137,11.719,45.410,42.969,26.367,-60.059,0
1539619893.141,17.090,47.363,35.645,23.438,49.805,0
1539619893.145,20.020,48.828,28.809,24.414,54.199,0
1539619893.149,16.602,47.363,31.738,24.902,24.414,0
1539619893.153,18.555,44.922,31.250,28.809,32.715,0
1539619893.157,20.508,45.898,32.715,29.297,34.668,0
1539619893.161,21.973,42.969,36.133,22.949,69.336,0
1539619893.165,18.066,44.434,35.156,20.020,81.543,0
1539619893.169,11.719,47.852,30.273,14.160,61.035,0
1539619893.173,10.254,44.434,28.320,13.672,63.965,0
1539619893.176,5.371,46.875,33.203,15.137,27.832,0
1539619893.180,6.348,48.340,37.598,18.555,-0.977,0
1539619893.184,7.324,47.363,37.109,19.043,41.504,0
1539619893.188,5.859,48.340,36.133,11.719,101.562,0
1539619893.192,9.766,46.875,36.133,15.625,79.590,0
1539619893.196,11.719,47.363,35.156,22.461,58.105,0
1539619893.200,12.207,48.828,32.715,20.996,64.453,0
1539619893.204,10.254,48.828,38.086,23.438,67.871,0
1539619893.208,9.277,46.875,40.039,17.090,40.039,0
1539619893.212,8.789,46.387,27.832,13.672,8.301,0
1539619893.216,5.371,44.922,28.320,23.926,42.480,0
1539619893.219,7.812,41.992,35.156,30.273,56.152,0
1539619893.223,10.254,44.922,33.691,20.020,28.809,0
1539619893.227,7.324,42.480,33.691,14.160,13.672,0
1539619893.231,7.324,41.504,36.133,18.066,25.879,0
1539619893.235,9.766,49.805,29.785,17.578,40.527,0
1539619893.239,13.672,51.758,30.273,18.555,53.711,0
1539619893.243,10.254,48.340,34.668,17.090,41.504,0
1539619893.247,2.930,47.363,34.180,19.531,54.199,0
1539619893.251,3.906,47.852,37.598,18.555,46.387,0
1539619893.255,9.277,47.852,38.086,17.090,89.844,0
1539619893.258,3.418,45.410,39.062,21.484,96.191,0
1539619893.262,-0.488,44.922,38.086,17.578,58.594,0
1539619893.266,4.395,47.852,33.691,16.602,4.883,0
1539619893.270,5.371,46.875,31.738,18.555,7.324,0
1539619893.274,0.977,44.434,29.785,21.973,59.082,0
1539619893.278,1.953,44.434,30.762,21.484,95.215,0
1539619893.282,6.348,45.410,41.992,17.578,83.984,0
1539619893.286,7.324,43.457,38.574,24.414,79.102,0
1539619893.290,9.766,41.016,27.832,23.926,67.871,0
1539619893.294,9.277,42.480,32.227,22.949,21.973,0
1539619893.298,8.789,44.922,30.273,28.809,88.867,0
1539619893.301,8.301,46.387,28.809,24.902,75.684,0
1539619893.305,7.324,45.410,24.902,20.996,25.879,0
1539619893.309,6.348,44.922,27.344,22.461,50.293,0
1539619893.313,8.789,45.410,32.715,17.090,41.992,0
1539619893.317,3.906,43.457,29.297,11.719,6.348,0
1539619893.321,1.953,41.504,30.273,18.555,7.324,0
1539619893.325,4.883,42.480,30.762,21.973,-24.414,0
1539619893.329,3.418,43.945,28.809,18.555,-12.207,0
1539619893.333,4.883,42.969,29.785,22.461,-0.488,0
1539619893.337,1.465,46.387,30.273,22.949,-62.500,0
1539619893.341,-3.906,47.363,38.574,16.113,-21.973,0
1539619893.344,3.418,45.898,37.598,15.625,37.598,0
1539619893.348,7.812,45.898,27.832,20.508,1.953,0
1539619893.352,0.000,43.457,31.738,21.973,-13.672,0
1539619893.356,0.488,40.527,34.180,21.484,5.859,0
1539619893.360,9.766,44.922,35.156,23.926,37.109,0
1539619893.364,11.719,47.363,36.621,24.414,38.574,0
1539619893.368,11.719,44.434,38.574,24.414,35.645,0
1539619893.372,13.672,44.922,38.086,27.344,63.477,0
1539619893.376,11.230,46.387,35.645,27.344,90.332,0
1539619893.380,9.277,45.898,35.645,27.832,111.816,0
1539619893.383,9.277,45.410,37.109,25.391,57.129,0
1539619893.387,8.789,47.852,36.133,19.043,54.688,0
1539619893.391,9.277,45.410,37.598,18.066,53.711,0
1539619893.395,10.742,44.434,37.598,20.508,32.227,0
1539619893.399,10.254,44.922,35.645,29.297,77.148,0
1539619893.403,14.648,42.480,37.109,28.320,91.797,0
1539619893.407,12.207,42.969,32.715,19.043,23.926,0
1539619893.411,5.859,46.387,38.574,24.414,-15.625,0
1539619893.415,11.230,47.363,42.969,23.926,32.715,0
1539619893.419,17.090,49.316,30.762,23.438,32.715,0
1539619893.423,10.254,45.410,33.691,20.508,28.320,0
1539619893.426,-1.465,45.410,33.691,13.184,62.500,0
1539619893.430,-3.906,44.922,33.203,15.137,95.703,0
1539619893.434,-3.418,41.016,33.691,13.672,52.734,0
1539619893.438,-0.977,41.992,33.203,11.230,48.340,0
1539619893.442,-1.465,42.480,32.227,12.695,83.008,0
1539619893.446,-1.953,42.480,32.227,14.160,52.246,0
1539619893.450,5.371,44.434,36.621,11.719,-19.043,0
1539619893.454,7.324,43.945,32.715,14.160,-46.875,0
1539619893.458,0.977,41.016,28.809,16.113,23.438,0
1539619893.462,-0.977,36.133,31.250,10.254,55.664,0
1539619893.466,3.418,36.621,28.809,13.672,24.414,0
1539619893.469,5.371,42.969,24.414,18.555,43.457,0
1539619893.473,10.254,45.898,28.809,20.996,79.590,0
1539619893.477,12.695,44.434,31.738,25.879,41.504,0
1539619893.481,14.160,44.922,38.086,16.602,-42.480,0
1539619893.485,13.184,46.387,39.551,14.648,-19.531,0
1539619893.489,8.789,45.898,28.320,14.160,94.727,0
1539619893.493,7.324,44.434,30.273,16.602,110.840,0
1539619893.497,3.418,42.480,30.762,20.020,55.176,0
1539619893.501,4.395,41.992,29.785,9.766,42.969,0
1539619893.505,6.348,41.992,35.156,11.230,31.738,0
1539619893.508,8.301,41.016,36.621,17.578,-7.324,0
1539619893.512,9.766,43.457,34.668,20.020,-25.879,0
1539619893.516,9.277,46.387,31.738,20.020,33.203,0
1539619893.520,14.160,41.504,33.691,21.973,58.105,0
1539619893.524,15.625,40.039,34.668,22.461,21.973,0
1539619893.528,16.602,45.898,27.344,20.996,-12.695,0
1539619893.532,22.461,47.363,24.902,14.160,-39.551,0
1539619893.536,21.484,48.828,31.738,19.531,38.574,0
1539619893.540,20.996,48.340,32.227,24.902,9.277,0
1539619893.544,20.020,45.410,28.320,15.625,-12.207,0
1539619893.548,15.137,44.434,31.738,17.090,100.098,0
1539619893.551,17.578,46.387,28.320,21.484,97.168,0
1539619893.555,19.531,48.828,27.832,18.066,95.215,0
1539619893.559,20.508,47.852,31.250,17.578,43.457,0
1539619893.563,21.484,43.945,32.715,20.996,20.996,0
1539619893.567,22.949,42.969,32.715,24.414,42.480,0
1539619893.571,26.855,42.480,33.203,27.832,9.766,0
1539619893.575,24.902,42.969,35.645,23.926,20.020,0
1539619893.579,20.508,47.363,35.645,24.414,56.641,0
1539619893.583,21.973,45.898,34.668,22.949,22.461,0
1539619893.587,21.973,40.039,32.227,20.020,23.438,0
1539619893.591,20.020,41.504,31.738,22.461,89.844,0
1539619893.594,19.531,44.922,34.668,17.090,109.375,0
1539619893.598,20.996,46.387,36.133,19.531,71.777,0
1539619893.602,22.461,46.387,32.227,26.855,51.270,0
1539619893.606,14.648,37.598,37.598,23.926,31.250,0
1539619893.610,10.254,38.574,34.180,20.996,41.504,0
1539619893.614,14.648,42.969,27.832,20.508,116.699,0
1539619893.618,16.602,40.039,32.715,17.090,94.238,0
1539619893.622,16.602,42.969,32.227,20.996,94.238,0
1539619893.626,19.531,42.969,35.156,22.461,124.023,0
1539619893.630,22.949,41.016,35.645,27.344,79.102,0
1539619893.633,15.625,41.504,33.203,21.973,74.707,0
1539619893.637,13.672,41.016,34.180,13.672,84.473,0
1539619893.641,16.602,37.598,32.227,17.578,5.371,0
1539619893.645,18.066,40.527,29.297,13.672,2.441,0
1539619893.649,18.555,43.457,31.250,13.184,36.621,0
1539619893.653,18.555,45.410,32.227,23.926,69.824,0
1539619893.657,23.438,45.410,29.785,20.020,45.410,0
1539619893.661,26.367,43.457,30.762,17.090,49.805,0
1539619893.665,28.809,42.969,34.180,28.809,58.594,0
1539619893.669,29.297,44.922,31.250,26.367,22.461,0
1539619893.673,26.367,45.898,31.250,27.344,13.184,0
1539619893.676,30.762,41.016,34.180,36.133,-7.324,0
1539619893.680,29.297,39.062,41.992,39.551,6.348,0
1539619893.684,30.273,41.016,38.574,29.785,45.898,0
1539619893.688,35.645,43.457,31.250,23.926,80.078,0
1539619893.692,34.668,41.016,35.645,29.297,67.383,0
1539619893.696,35.645,40.527,33.691,40.039,47.363,0
1539619893.700,35.156,43.457,32.715,39.062,55.176,0
1539619893.704,32.715,43.945,35.645,33.691,27.832,0
1539619893.708,29.297,38.574,36.133,29.297,40.039,0
1539619893.712,25.391,39.062,36.133,20.996,20.020,0
1539619893.716,26.855,48.340,35.645,20.996,23.926,0
1539619893.719,23.438,49.805,36.621,21.973,65.430,0
1539619893.723,21.484,42.969,35.645,18.555,73.242,0
1539619893.727,22.461,41.016,31.250,18.066,67.871,0
1539619893.731,22.461,43.457,31.738,18.066,16.602,0
1539619893.735,21.484,44.922,29.297,19.531,7.324,0
1539619893.739,11.719,45.410,38.574,19.531,14.648,0
1539619893.743,15.137,46.387,41.992,12.695,-18.555,0
1539619893.747,21.973,48.340,31.250,14.648,21.973,0
1539619893.751,18.555,43.457,33.203,16.113,41.016,0
1539619893.755,16.113,41.016,32.715,15.625,36.621,0
1539619893.758,19.531,44.922,36.133,18.555,57.617,0
1539619893.762,19.531,44.434,37.598,18.066,58.105,0
1539619893.766,16.602,40.527,34.180,19.531,68.848,0
1539619893.770,14.648,37.109,34.668,15.625,36.621,0
1539619893.774,12.695,39.062,34.180,10.742,54.199,0
1539619893.778,15.625,40.039,34.180,9.766,35.156,0
1539619893.782,20.996,40.039,35.156,15.137,11.230,0
1539619893.786,21.973,40.527,30.762,22.949,61.035,0
1539619893.790,22.461,39.551,30.762,22.949,34.668,0
1539619893.794,21.484,39.551,34.180,17.578,-4.395,0
1539619893.798,18.066,39.551,34.180,19.531,-3.906,0
1539619893.801,17.578,38.574,30.762,24.414,-25.879,0
1539619893.805,20.996,40.039,27.832,20.996,11.719,0
1539619893.809,17.578,36.621,29.297,19.531,48.828,0
1539619893.813,10.254,26.855,36.133,21.973,37.598,0
1539619893.817,14.160,31.250,30.762,24.414,72.266,0
1539619893.821,20.508,39.551,28.320,23.438,60.547,0
1539619893.825,22.461,39.551,29.297,20.996,48.340,0
1539619893.829,18.066,40.527,28.320,17.090,61.523,0
1539619893.833,15.137,38.086,32.715,14.160,21.484,0
1539619893.837,16.113,35.645,31.250,20.020,16.113,0
1539619893.841,15.625,39.062,28.809,13.672,2.930,0
1539619893.844,21.484,43.457,24.414,10.254,-50.781,0
1539619893.848,26.367,42.480,27.832,23.438,-26.367,0
1539619893.852,18.555,40.039,32.227,20.996,4.395,0
1539619893.856,15.625,41.016,30.762,14.648,31.250,0
1539619893.860,11.719,40.039,34.180,8.301,65.430,0
1539619893.864,8.301,37.598,32.715,7.324,66.895,0
1539619893.868,13.184,39.062,29.297,7.812,37.109,0
1539619893.872,10.254,38.574,32.715,-1.465,44.434,0
1539619893.876,14.160,39.062,29.297,8.789,106.934,0
1539619893.880,14.648,37.598,26.855,18.066,68.359,0
1539619893.883,15.625,39.062,29.785,16.602,27.832,0
1539619893.887,20.996,41.504,28.320,13.184,62.500,0
1539619893.891,20.020,40.039,27.832,14.648,47.363,0
1539619893.895,12.695,41.504,34.180,19.043,5.859,0
1539619893.899,9.277,36.621,36.621,13.672,14.648,0
1539619893.903,12.207,34.180,33.203,5.371,85.449,0
1539619893.907,13.184,39.062,32.715,14.648,63.477,0
1539619893.911,14.648,40.527,35.156,19.531,15.137,0
1539619893.915,19.531,43.457,32.227,18.066,40.527,0
1539619893.919,21.973,43.457,30.762,18.066,3.418,0
1539619893.923,24.414,43.457,33.203,20.508,31.738,0
1539619893.926,27.344,41.504,33.691,17.578,61.035,0
1539619893.930,26.855,41.016,34.180,20.020,-1.953,0
1539619893.934,33.203,44.434,35.156,31.738,60.059,0
1539619893.938,33.203,45.898,34.180,32.227,59.570,0
1539619893.942,27.344,48.828,33.691,20.020,18.555,0
1539619893.946,27.344,49.316,39.062,16.113,33.691,0
1539619893.950,31.250,49.805,35.645,25.391,48.340,0
1539619893.954,30.762,50.293,32.227,28.320,76.660,0
1539619893.958,28.320,47.852,36.133,22.461,87.891,0
1539619893.962,27.832,45.898,37.109,22.461,62.500,0
1539619893.966,25.879,45.410,37.598,24.414,43.945,0
1539619893.969,25.879,44.922,41.504,29.297,66.406,0
1539619893.973,25.879,40.527,39.062,30.762,74.707,0
1539619893.977,21.973,44.922,37.598,23.926,27.832,0
1539619893.981,22.949,50.781,39.062,20.996,37.109,0
1539619893.985,25.879,47.852,36.621,21.973,67.871,0
1539619893.989,22.461,47.363,35.156,20.508,31.738,0
1539619893.993,24.902,50.781,34.180,17.578,41.504,0
1539619893.997,24.902,50.293,34.668,19.043,-3.418,0
1539619894.001,22.949,44.922,36.621,20.996,-10.254,0
1539619894.005,24.414,44.922,36.621,19.531,56.641,0
1539619894.008,23.438,46.387,35.645,14.648,49.316,0
1539619894.012,25.879,45.898,35.156,20.508,31.250,0
1539619894.016,24.414,43.945,39.062,19.043,17.578,0
1539619894.020,24.414,42.480,36.621,19.531,8.789,0
1539619894.024,24.414,43.457,29.785,22.461,61.523,0
1539619894.028,24.902,44.434,34.668,25.391,68.359,0
1539619894.032,25.879,43.945,35.156,27.344,-29.785,0
1539619894.036,24.902,38.574,31.738,21.484,23.926,0
1539619894.040,20.508,38.574,32.715,19.043,89.355,0
1539619894.044,20.020,46.387,32.227,20.996,59.082,0
1539619894.048,25.879,46.387,28.809,22.461,41.504,0
1539619894.051,28.809,43.945,26.855,20.020,7.812,0
1539619894.055,27.344,45.410,27.344,22.461,29.785,0
1539619894.059,24.414,44.434,28.809,19.043,22.461,0
1539619894.063,21.484,41.016,30.762,13.184,6.836,0
1539619894.067,20.020,42.480,30.762,18.555,46.387,0
1539619894.071,24.902,41.016,29.297,20.508,60.547,0
1539619894.075,25.391,41.992,32.227,21.973,63.477,0
1539619894.079,23.438,45.410,31.250,29.297,54.199,0
1539619894.083,20.996,44.922,39.062,23.926,38.086,0
1539619894.087,20.020,43.945,39.551,17.090,38.574,0
1539619894.091,21.973,44.922,26.367,19.043,68.359,0
1539619894.094,27.344,44.434,27.832,20.508,84.961,0
1539619894.098,25.879,39.551,27.344,20.996,96.191,0
1539619894.102,17.578,40.039,27.344,19.043,69.336,0
1539619894.106,24.902,48.340,28.809,13.184,57.617,0
1539619894.110,25.391,47.852,33.691,11.719,65.430,0
1539619894.114,22.949,42.480,36.621,17.578,-10.254,0
1539619894.118,28.320,44.434,34.180,26.855,16.113,0
1539619894.122,23.926,49.316,33.203,20.508,61.035,0
1539619894.126,18.555,50.781,27.832,9.766,23.438,0
1539619894.130,21.484,47.852,22.461,11.230,31.250,0
1539619894.133,17.578,44.922,27.344,9.277,65.918,0
1539619894.137,15.625,48.340,31.738,4.395,60.547,0
1539619894.141,20.020,49.316,34.180,11.719,37.598,0
1539619894.145,21.484,47.363,32.715,15.625,43.945,0
1539619894.149,21.484,49.316,31.738,10.254,51.758,0
1539619894.153,22.949,47.852,35.645,18.555,22.949,0
1539619894.157,23.926,47.363,36.621,23.926,33.691,0
1539619894.161,23.438,48.340,34.668,21.973,-5.859,0
1539619894.165,25.391,45.410,41.992,26.855,-3.418,0
1539619894.169,29.297,49.805,38.086,20.996,125.488,0
1539619894.173,34.180,53.711,31.250,20.508,129.883,0
1539619894.176,36.621,47.852,32.715,31.250,38.574,0
1539619894.180,33.203,41.992,28.809,27.832,51.270,0
1539619894.184,27.344,47.852,33.203,23.926,39.062,0
1539619894.188,27.344,54.688,35.156,26.367,63.965,0
1539619894.192,28.809,51.758,37.109,29.785,40.527,0
1539619894.196,29.297,46.875,40.039,24.902,24.902,0
1539619894.200,28.320,50.293,34.180,20.996,56.152,0
1539619894.204,19.531,50.293,31.250,21.484,42.969,0
1539619894.208,20.020,48.828,32.227,21.484,85.938,0
1539619894.212,23.926,46.875,30.762,21.973,100.098,0
1539619894.216,23.926,46.387,29.785,20.508,23.926,0
1539619894.219,25.391,46.387,30.273,22.949,29.297,0
1539619894.223,23.438,44.922,28.320,19.043,60.547,0
1539619894.227,27.832,42.969,26.367,19.531,56.152,0
1539619894.231,33.203,42.480,26.367,23.926,66.895,0
1539619894.235,23.438,45.898,25.391,15.137,35.156,0
1539619894.239,17.578,43.457,35.156,8.789,-1.465,0
1539619894.243,24.414,43.945,41.016,16.113,-15.137,0
1539619894.247,28.809,48.340,31.738,20.508,-23.438,0
1539619894.251,21.973,46.875,31.250,12.207,37.109,0
1539619894.255,16.602,45.410,32.715,8.301,22.461,0
1539619894.258,16.113,46.387,32.715,10.742,-20.996,0
1539619894.262,11.230,48.340,35.156,5.859,-21.484,0
1539619894.266,4.883,49.316,35.645,-0.977,17.090,0
1539619894.270,2.930,49.805,36.621,-2.441,72.266,0
1539619894.274,4.395,50.781,38.086,-3.418,71.777,0
1539619894.278,2.930,51.758,37.109,-4.883,17.090,0
1539619894.282,0.000,52.734,39.551,-8.789,-17.090,1
1539619894.286,0.000,51.758,45.898,-3.906,52.246,0
1539619894.290,2.930,51.758,47.363,-4.395,112.793,0
1539619894.294,1.465,50.781,42.480,-14.160,74.219,0
1539619894.298,-2.441,52.246,40.527,-14.648,19.531,0
1539619894.301,-9.766,58.105,42.969,-18.555,38.086,0
1539619894.305,-11.719,59.570,40.039,-20.508,33.691,0
1539619894.309,-7.324,60.059,45.410,-14.648,37.109,0
1539619894.313,-14.160,56.641,53.223,-14.160,75.684,0
1539619894.317,-18.555,58.594,49.805,-20.508,96.680,0
1539619894.321,-19.043,59.082,53.223,-22.949,75.195,0
1539619894.325,-19.043,58.594,58.105,-20.020,83.496,0
1539619894.329,-16.113,61.523,51.270,-15.137,69.336,0
1539619894.333,-16.113,62.012,48.828,-23.926,28.320,0
1539619894.337,-26.367,62.500,47.852,-30.762,-0.488,0
1539619894.341,-29.785,61.035,48.828,-21.484,-12.695,0
1539619894.344,-24.414,61.035,51.270,-18.066,-12.207,0
1539619894.348,-27.344,61.523,52.246,-22.949,31.738,0
1539619894.352,-30.273,56.641,55.176,-22.949,33.691,0
1539619894.356,-29.297,53.223,54.199,-18.066,10.742,0
1539619894.360,-23.926,58.594,55.664,-21.973,61.035,0
1539619894.364,-24.902,61.523,56.641,-26.367,18.555,0
1539619894.368,-26.367,64.941,52.246,-31.250,6.348,0
1539619894.372,-24.414,67.383,51.758,-34.668,2.930,0
1539619894.376,-29.785,66.895,54.199,-35.645,18.066,0
1539619894.380,-30.273,71.289,55.664,-33.691,46.387,0
1539619894.383,-31.738,73.242,56.152,-34.180,24.414,0
1539619894.387,-39.551,68.848,59.570,-41.504,44.922,0
1539619894.391,-36.133,67.383,62.988,-40.527,16.113,0
1539619894.395,-38.574,68.359,62.988,-44.922,-20.508,0
1539619894.399,-49.316,69.824,69.336,-55.176,-0.977,0
1539619894.403,-51.758,71.777,65.430,-55.176,44.434,0
1539619894.407,-50.781,71.289,61.523,-51.270,72.754,0
1539619894.411,-55.176,71.777,65.430,-53.223,31.250,0
1539619894.415,-57.129,73.242,64.453,-56.641,24.902,0
1539619894.419,-58.594,69.824,67.871,-59.570,40.039,0
1539619894.423,-61.523,71.289,72.266,-61.035,27.344,0
1539619894.426,-60.547,72.266,70.312,-64.453,43.945,0
1539619894.430,-63.477,71.289,68.848,-68.848,68.848,0
1539619894.434,-64.941,71.289,68.848,-65.918,30.762,0
1539619894.438,-59.082,74.707,66.406,-63.477,8.789,0
1539619894.442,-60.059,77.148,62.500,-65.918,12.695,0
1539619894.446,-60.059,76.660,60.547,-66.895,36.621,0
1539619894.450,-54.688,78.613,63.477,-66.406,82.031,0
1539619894.454,-59.570,78.125,65.430,-62.988,28.809,0
1539619894.458,-67.383,74.707,64.941,-64.453,34.668,0
1539619894.462,-62.500,70.312,63.477,-68.359,41.992,0
1539619894.466,-57.617,67.871,61.035,-59.570,53.711,0
1539619894.469,-57.617,70.312,62.988,-55.176,97.656,0
1539619894.473,-57.129,70.312,60.547,-64.453,62.988,0
1539619894.477,-51.270,70.312,48.828,-57.617,52.246,0
1539619894.481,-44.922,69.824,48.340,-54.199,95.703,0
1539619894.485,-39.551,68.848,49.805,-60.059,82.520,0
1539619894.489,-44.434,69.824,49.805,-53.711,24.902,0
1539619894.493,-42.969,62.012,50.293,-41.016,28.320,0
1539619894.497,-35.645,57.617,46.875,-42.969,40.527,0
1539619894.501,-35.156,61.523,42.969,-40.527,49.805,0
1539619894.505,-24.902,59.082,40.527,-30.273,67.871,0
1539619894.508,-12.695,53.711,35.645,-20.508,26.855,0
1539619894.512,-9.766,47.852,34.180,-7.812,12.695,0
1539619894.516,-1.465,42.480,34.668,-0.488,41.504,0
1539619894.520,9.277,35.156,30.762,8.789,86.426,0
1539619894.524,18.555,33.203,27.832,12.695,58.594,0
1539619894.528,32.715,32.715,26.855,19.043,36.133,0
1539619894.532,38.086,27.344,24.902,23.926,40.527,0
1539619894.536,34.180,24.902,22.949,23.926,31.738,0
1539619894.540,38.086,21.973,13.672,35.645,29.297,0
1539619894.544,43.945,17.578,15.137,44.434,42.480,0
1539619894.548,47.852,14.160,17.578,47.852,78.613,0
1539619894.551,53.711,13.184,13.184,56.152,43.457,0
1539619894.555,57.129,11.719,12.207,56.152,13.672,0
1539619894.559,62.500,10.742,11.230,47.363,21.973,0
1539619894.563,70.801,6.348,11.230,58.105,58.105,0
1539619894.567,76.172,3.418,11.719,71.777,64.453,0
1539619894.571,77.637,9.277,8.789,69.336,54.688,0
1539619894.575,75.195,12.695,9.277,62.500,39.062,0
1539619894.579,75.195,12.207,12.207,65.918,24.414,0
1539619894.583,72.266,11.230,11.230,71.777,38.574,0
1539619894.587,73.242,13.184,10.742,68.359,39.062,0
1539619894.591,79.590,14.160,11.230,72.754,40.039,0
1539619894.594,83.496,13.672,13.184,83.008,39.062,0
1539619894.598,81.055,12.695,13.672,83.008,65.918,0
1539619894.602,83.008,10.742,12.695,81.055,57.129,0
1539619894.606,84.473,14.160,18.555,81.543,68.359,0
1539619894.610,86.426,17.090,14.648,80.566,101.562,0
1539619894.614,85.938,15.137,11.230,78.125,91.309,0
1539619894.618,85.449,20.020,16.113,73.242,88.379,0
1539619894.622,88.379,23.926,15.625,75.684,51.270,0
1539619894.626,85.449,17.090,14.648,77.148,7.324,0
1539619894.630,89.844,17.578,16.602,73.730,9.277,0
1539619894.633,90.332,23.926,17.090,73.242,-10.742,0
1539619894.637,82.031,23.438,16.602,76.172,14.648,0
1539619894.641,78.613,22.461,14.160,69.336,47.363,0
1539619894.645,76.172,26.855,12.695,66.406,37.109,0
1539619894.649,74.219,27.832,12.695,73.242,16.602,0
1539619894.653,76.660,24.414,14.648,73.242,34.180,0
1539619894.657,84.473,25.879,16.602,71.777,75.684,0
1539619894.661,79.102,28.320,16.602,68.359,43.945,0
1539619894.665,72.754,25.879,14.160,61.035,2.930,0
1539619894.669,71.777,24.902,17.578,62.500,-22.461,0
1539619894.673,67.383,25.879,24.902,69.336,22.461,0
1539619894.676,65.918,27.832,16.602,57.129,93.750,0
1539619894.680,67.871,22.461,13.672,52.734,-5.859,0
1539619894.684,71.289,21.973,20.020,58.105,-4.395,0
1539619894.688,63.965,25.391,26.367,57.129,22.461,0
1539619894.692,63.477,26.367,25.391,59.082,8.789,0
1539619894.696,65.430,29.297,22.461,59.082,61.035,0
1539619894.700,60.547,28.809,21.484,52.734,38.574,0
1539619894.704,59.082,25.879,19.043,55.176,33.691,0
1539619894.708,63.477,26.367,19.531,59.082,53.223,0
1539619894.712,67.871,26.367,22.949,56.641,55.664,0
1539619894.716,61.523,27.344,23.438,55.664,48.828,0
1539619894.719,51.270,28.320,22.949,53.223,46.387,0
1539619894.723,58.105,29.297,23.926,48.828,17.090,0
1539619894.727,56.641,31.250,23.926,47.363,18.066,0
1539619894.731,53.711,31.738,20.508,50.781,46.387,0
1539619894.735,55.664,35.645,25.391,49.316,34.668,0
1539619894.739,55.176,30.273,26.855,50.781,18.555,0
1539619894.743,58.105,29.785,16.113,51.758,48.828,0
1539619894.747,57.129,35.645,20.020,48.828,37.109,0
1539619894.751,55.664,37.598,23.438,48.828,57.617,0
1539619894.755,55.664,37.598,24.902,45.898,79.590,0
1539619894.758,55.176,35.156,23.438,48.828,44.922,0
1539619894.762,51.758,37.109,20.508,47.363,64.453,0
1539619894.766,51.270,40.527,23.438,42.969,84.961,0
1539619894.770,54.199,40.527,24.902,48.828,26.855,0
1539619894.774,53.711,40.039,22.949,48.340,66.406,0
1539619894.778,45.898,38.086,21.484,43.457,74.707,0
1539619894.782,45.898,35.156,23.438,41.504,14.160,0
1539619894.786,49.316,37.598,25.879,41.504,44.434,0
1539619894.790,44.922,39.551,23.926,36.621,56.152,0
1539619894.794,45.898,38.574,23.926,35.156,41.992,0
1539619894.798,47.852,36.133,34.180,36.133,4.395,0
1539619894.801,44.434,36.621,27.344,42.969,14.648,0
1539619894.805,39.551,38.086,21.484,39.551,66.406,0
1539619894.809,42.969,33.203,25.391,32.227,41.016,0
1539619894.813,45.898,35.645,26.855,36.133,-0.488,0
1539619894.817,40.527,39.062,26.367,38.574,25.391,0
1539619894.821,39.551,38.574,24.414,29.297,37.598,0
1539619894.825,41.504,39.062,23.926,27.344,35.645,0
1539619894.829,40.039,36.133,27.344,38.086,51.758,0
1539619894.833,37.109,35.645,23.438,36.133,39.551,0
1539619894.837,41.504,40.527,20.508,35.156,8.789,0
1539619894.841,45.410,42.480,22.949,41.992,15.137,0
1539619894.844,42.969,43.945,22.949,45.410,-14.160,0
1539619894.848,43.945,43.457,24.414,36.133,-16.113,0
1539619894.852,44.434,41.504,27.344,33.203,49.316,0
1539619894.856,41.992,42.480,24.902,33.691,31.738,0
1539619894.860,38.086,43.457,24.902,29.297,57.617,0
1539619894.864,36.133,40.039,29.297,25.879,70.801,0
1539619894.868,44.434,38.574,24.414,32.227,44.922,0
1539619894.872,44.434,44.922,22.949,31.738,62.988,0
1539619894.876,36.621,45.410,26.367,25.391,88.379,0
1539619894.880,43.457,41.992,27.344,28.809,51.758,0
1539619894.883,43.457,43.457,27.344,36.133,44.922,0
1539619894.887,36.621,47.852,29.785,34.668,53.711,0
1539619894.891,38.574,45.410,31.738,31.250,27.344,0
1539619894.895,36.133,44.434,29.785,31.250,47.852,0
1539619894.899,37.109,46.875,25.879,34.668,33.203,0
1539619894.903,37.109,47.852,24.902,30.273,20.020,0
1539619894.907,36.133,45.410,27.344,21.973,36.133,0
1539619894.911,34.180,40.527,30.273,26.855,79.590,0
1539619894.915,31.738,40.527,30.762,25.391,82.520,0
1539619894.919,31.250,42.480,28.809,27.832,60.547,0
1539619894.923,29.297,38.574,34.668,24.902,27.344,0
1539619894.926,28.320,43.457,30.273,11.719,21.484,0
1539619894.930,34.180,46.387,22.949,17.090,54.199,0
1539619894.934,34.668,38.086,31.250,22.949,30.273,0
1539619894.938,36.621,38.574,33.203,25.391,35.645,0
1539619894.942,37.598,39.062,34.180,30.762,74.219,0
1539619894.946,36.133,43.945,34.180,28.809,116.211,0
1539619894.950,36.621,47.363,32.227,17.090,85.938,0
1539619894.954,38.574,44.434,31.250,21.484,37.109,0
1539619894.958,36.133,44.922,33.203,25.391,37.598,0
1539619894.962,27.832,45.410,30.762,24.902,11.719,0
1539619894.966,27.344,45.410,27.832,24.902,38.574,0
1539619894.969,29.297,45.898,30.762,25.879,65.918,0
1539619894.973,31.738,45.410,32.227,26.855,91.797,0
1539619894.977,30.762,43.945,29.297,22.949,110.840,0
1539619894.981,30.273,46.387,30.762,27.832,60.547,0
1539619894.985,26.855,47.363,32.227,20.996,81.055,0
1539619894.989,27.344,43.945,38.574,19.531,65.918,0
1539619894.993,29.785,42.480,32.227,24.414,31.738,0
1539619894.997,28.320,38.086,25.879,12.695,26.367,0
1539619895.001,25.391,36.621,27.344,11.230,3.418,0
1539619895.005,24.902,42.480,27.832,14.648,20.020,0
1539619895.008,24.414,41.504,27.832,10.254,30.762,0
1539619895.012,26.855,42.480,25.879,11.230,40.039,0
1539619895.016,28.809,44.922,24.414,13.184,86.914,0
1539619895.020,31.250,45.898,28.809,14.648,48.828,0
1539619895.024,28.809,44.922,32.715,19.531,29.785,0
1539619895.028,25.879,42.480,30.762,20.508,96.191,0
1539619895.032,31.738,49.316,30.273,24.414,41.504,0
1539619895.036,25.391,50.781,29.785,26.367,0.977,0
1539619895.040,19.043,46.875,29.297,21.484,32.227,0
1539619895.044,18.066,48.340,30.762,15.137,37.598,0
1539619895.048,18.066,46.387,29.297,16.602,77.148,0
1539619895.051,22.461,39.551,26.855,18.066,44.434,0
1539619895.055,20.996,39.551,36.133,18.555,-16.113,0
1539619895.059,23.926,44.922,32.715,26.367,59.082,0
1539619895.063,26.367,45.410,23.438,24.414,88.867,0
1539619895.067,26.367,42.969,31.250,20.996,3.418,0
1539619895.071,30.273,44.434,33.691,26.367,-10.742,0
1539619895.075,31.250,44.922,34.180,29.297,-23.438,0
1539619895.079,26.367,42.969,32.227,20.508,-40.527,0
1539619895.083,22.949,43.945,30.273,15.625,50.293,0
1539619895.087,19.531,41.992,28.809,21.973,34.668,0
1539619895.091,16.602,40.527,30.273,11.230,-35.156,0
1539619895.094,19.531,42.480,32.227,10.742,21.484,0
1539619895.098,19.043,43.945,31.250,13.184,49.316,0
1539619895.102,18.555,45.410,32.715,8.301,0.977,0
1539619895.106,18.555,44.922,28.809,11.719,34.668,0
1539619895.110,15.625,39.062,27.344,11.230,51.758,0
1539619895.114,15.625,39.551,30.273,11.719,2.930,0
1539619895.118,15.137,42.969,30.762,16.113,31.738,0
1539619895.122,18.066,41.992,34.180,21.484,32.227,0
1539619895.126,21.484,44.922,37.598,20.996,13.672,0
1539619895.130,20.996,44.922,39.062,20.020,43.457,0
1539619895.133,19.531,42.480,31.738,24.414,43.457,0
1539619895.137,19.043,39.551,29.297,18.555,42.969,0
1539619895.141,20.020,41.992,28.809,13.672,49.805,0
1539619895.145,18.555,43.945,29.297,15.625,7.324,0
1539619895.149,17.578,42.969,31.250,19.043,23.438,0
1539619895.153,18.066,40.527,29.785,19.043,43.457,0
1539619895.157,22.461,39.551,32.227,16.113,16.113,0
1539619895.161,26.855,42.480,35.645,16.602,45.410,0
1539619895.165,21.484,39.551,31.250,16.602,47.852,0
1539619895.169,20.508,38.574,29.785,20.508,17.090,0
1539619895.173,21.973,47.363,29.785,13.184,25.879,0
1539619895.176,22.461,44.922,26.855,5.371,30.273,0
1539619895.180,25.391,41.504,25.391,17.090,-3.418,0
1539619895.184,29.785,44.434,22.949,24.414,25.879,0
1539619895.188,34.180,45.410,26.367,14.648,8.789,0
1539619895.192,35.156,45.410,38.086,14.648,38.574,0
1539619895.196,36.621,45.410,32.715,19.531,109.375,0
1539619895.200,31.250,46.387,23.926,20.020,117.676,0
1539619895.204,28.320,44.922,27.832,22.949,99.609,0
1539619895.208,31.738,40.039,29.297,26.367,71.777,0
1539619895.212,29.297,43.945,27.832,22.461,65.430,0
1539619895.216,27.832,47.852,28.809,26.367,26.855,0
1539619895.219,26.855,44.434,29.785,24.902,35.645,0
1539619895.223,26.367,41.504,25.879,20.020,86.426,0
1539619895.227,28.809,38.574,27.832,19.043,59.570,0
1539619895.231,25.391,44.434,28.320,19.531,16.602,0
1539619895.235,21.973,48.828,29.785,23.438,56.152,0
1539619895.239,24.902,46.387,30.273,20.020,63.965,0
1539619895.243,28.320,48.340,25.879,24.414,62.500,0
1539619895.247,34.180,47.363,29.785,23.438,71.777,0
1539619895.251,32.715,41.016,37.109,21.484,3.418,0
1539619895.255,22.461,41.504,28.809,19.531,-13.184,0
1539619895.258,24.414,41.992,26.367,17.578,-12.695,0
1539619895.262,31.738,42.480,28.809,18.555,14.648,0
1539619895.266,28.809,43.945,27.344,21.973,60.059,0
1539619895.270,27.832,42.969,27.832,22.461,77.148,0
1539619895.274,24.902,45.410,28.320,15.625,93.262,0
1539619895.278,23.926,47.852,30.762,16.113,72.266,0
1539619895.282,23.926,47.363,27.832,17.090,62.012,0
1539619895.286,26.855,40.527,23.438,20.996,56.152,0
1539619895.290,25.391,37.109,24.902,16.113,-11.719,0
1539619895.294,22.461,43.945,29.297,10.742,34.668,0
1539619895.298,26.367,48.340,34.180,17.578,87.891,0
1539619895.301,30.762,47.852,29.785,27.832,43.457,0
1539619895.305,30.273,45.898,24.902,23.438,34.180,0
1539619895.309,25.391,43.945,36.133,17.090,40.527,0
1539619895.313,25.391,42.969,38.086,24.902,90.820,0
1539619895.317,25.879,45.898,29.297,24.902,60.059,0
1539619895.321,24.902,54.199,31.738,21.484,-8.301,0
1539619895.325,27.832,50.781,30.273,24.414,15.137,0
1539619895.329,25.391,45.410,27.832,23.926,22.461,0
1539619895.333,25.391,46.387,27.832,25.879,-9.766,0
1539619895.337,23.438,43.945,32.227,28.320,-5.859,0
1539619895.341,20.020,41.504,32.715,27.344,28.320,0
1539619895.344,24.902,42.969,28.320,23.438,85.938,0
1539619895.348,25.879,44.922,30.273,22.949,75.195,0
1539619895.352,24.414,43.457,32.715,20.996,54.688,0
1539619895.356,31.250,46.387,30.762,22.461,52.246,0
1539619895.360,26.367,51.270,30.762,23.926,34.668,0
1539619895.364,9.277,48.828,31.738,15.625,33.203,0
1539619895.368,16.113,46.875,30.762,17.578,48.828,0
1539619895.372,25.391,48.828,26.855,17.090,0.977,0
1539619895.376,18.555,46.387,33.691,12.695,-14.160,0
1539619895.380,20.508,41.016,34.668,20.020,10.742,0
1539619895.383,28.320,39.062,30.762,21.973,82.031,0
1539619895.387,25.391,42.480,30.762,15.137,99.121,0
1539619895.391,23.438,45.410,29.297,12.207,51.270,0
1539619895.395,27.832,44.922,30.762,20.996,22.949,0
1539619895.399,29.297,41.992,33.203,23.926,44.922,0
1539619895.403,24.414,41.992,32.227,17.090,6.836,0
1539619895.407,23.926,41.992,29.297,16.113,44.922,0
1539619895.411,26.367,41.992,28.809,14.160,71.289,0
1539619895.415,22.949,43.945,30.762,8.789,13.672,0
1539619895.419,20.996,43.457,29.785,10.254,52.734,0
1539619895.423,25.391,41.504,30.273,23.438,33.203,0
1539619895.426,24.414,41.016,35.156,22.949,10.254,0
1539619895.430,28.320,41.992,34.180,20.020,20.020,0
1539619895.434,27.344,40.039,35.645,20.996,28.320,0
1539619895.438,24.414,38.574,37.598,21.484,47.363,0
1539619895.442,26.855,38.574,31.738,28.320,33.691,0
1539619895.446,24.414,34.668,29.785,23.926,48.340,0
1539619895.450,26.855,37.598,31.738,21.484,70.312,0
1539619895.454,28.320,43.457,32.227,27.344,81.543,0
1539619895.458,26.855,46.875,31.738,23.438,48.340,0
1539619895.462,27.344,47.363,30.762,17.090,53.711,0
1539619895.466,27.832,43.945,27.344,18.066,77.148,0
1539619895.469,24.414,43.945,26.855,13.184,47.852,0
1539619895.473,24.414,42.969,29.297,19.531,-13.672,0
1539619895.477,28.320,40.527,32.227,16.113,-0.977,0
1539619895.481,28.809,42.480,30.273,14.160,39.551,0
1539619895.485,29.785,44.922,28.320,25.879,16.602,0
1539619895.489,23.438,44.434,38.574,20.020,4.883,0
1539619895.493,23.926,44.434,42.480,20.996,-16.602,0
1539619895.497,27.344,41.504,31.738,30.273,25.879,0
1539619895.501,25.391,40.039,34.180,24.902,78.125,0
1539619895.505,29.297,45.410,37.109,20.996,113.770,0
1539619895.508,26.367,43.457,32.227,24.414,68.359,0
1539619895.512,27.832,37.109,32.227,24.414,-16.113,0
1539619895.516,28.320,42.480,36.133,22.461,54.199,0
1539619895.520,26.367,47.363,34.668,26.367,109.375,0
1539619895.524,28.809,42.969,34.180,27.832,71.777,0
1539619895.528,28.320,40.527,33.203,20.508,49.316,0
1539619895.532,24.414,42.480,33.203,22.461,19.531,0
1539619895.536,24.414,42.969,35.645,27.832,19.531,0
1539619895.540,24.902,41.992,34.180,23.926,28.809,0
1539619895.544,25.879,40.527,32.227,22.461,-8.789,0
1539619895.548,25.391,41.504,29.785,26.367,45.898,0
1539619895.551,27.344,39.551,33.203,26.367,60.547,0
1539619895.555,28.320,38.574,30.762,20.996,58.105,0
1539619895.559,26.855,41.016,31.738,20.508,48.340,0
1539619895.563,28.809,40.527,35.645,22.461,14.160,0
1539619895.567,30.762,44.434,24.414,22.949,-32.715,0
1539619895.571,33.203,44.434,23.926,20.020,-36.133,0
1539619895.575,28.809,36.133,26.367,21.484,11.719,0
1539619895.579,25.391,39.062,25.879,18.066,46.387,0
1539619895.583,27.832,45.410,27.832,14.648,134.766,0
1539619895.587,30.273,43.457,28.809,20.020,103.516,0
1539619895.591,26.855,42.480,26.367,22.461,19.043,0
1539619895.594,23.438,44.434,28.809,23.926,12.695,0
1539619895.598,27.832,45.410,33.203,18.066,-6.348,0
1539619895.602,25.879,45.898,31.738,19.043,5.859,0
1539619895.606,28.809,45.410,32.715,16.602,3.906,0
1539619895.610,30.273,42.969,34.668,15.625,-0.488,0
1539619895.614,23.926,43.457,30.273,19.043,12.207,0
1539619895.618,29.297,42.480,29.297,20.508,-6.348,0
1539619895.622,25.391,41.504,33.691,18.066,28.320,0
1539619895.626,14.648,41.992,30.273,17.578,66.406,0
1539619895.630,17.090,45.410,28.809,15.625,61.523,0
1539619895.633,22.461,46.387,30.273,11.719,32.715,0
1539619895.637,18.066,39.551,30.273,14.160,22.461,0
1539619895.641,14.160,33.691,28.320,15.625,64.453,0
1539619895.645,20.508,38.574,30.762,19.531,71.777,0
1539619895.649,21.973,46.875,30.273,19.531,63.477,0
1539619895.653,23.438,46.387,27.832,20.996,35.645,0
1539619895.657,25.391,44.922,29.785,20.996,43.457,0
1539619895.661,24.414,45.410,30.762,19.043,50.293,0
1539619895.665,26.855,44.922,32.715,22.949,39.551,0
1539619895.669,25.391,42.969,31.250,25.879,58.594,0
1539619895.673,22.949,38.574,32.227,20.020,19.531,1
1539619895.676,24.414,38.086,31.250,20.508,27.344,0
1539619895.680,19.531,40.527,34.668,20.996,41.992,0
1539619895.684,17.090,43.457,32.227,16.602,32.227,0
1539619895.688,24.414,45.410,25.879,15.625,115.723,0
1539619895.692,24.902,45.898,28.320,12.207,76.172,0
1539619895.696,23.438,44.922,28.320,19.531,31.250,0
1539619895.700,27.832,44.434,29.297,16.602,107.422,0
1539619895.704,23.438,42.969,28.320,10.742,81.543,0
1539619895.708,16.602,42.480,30.273,11.719,-2.441,0
1539619895.712,20.508,41.504,31.738,11.230,0.488,0
1539619895.716,21.973,38.086,31.738,17.578,7.812,0
1539619895.719,15.625,42.969,30.762,9.766,20.508,0
1539619895.723,19.531,46.875,30.762,13.672,7.812,0
1539619895.727,23.438,43.945,34.668,26.367,15.625,0
1539619895.731,25.879,45.410,35.645,24.414,27.832,0
1539619895.735,28.320,47.852,35.156,26.367,62.500,0
1539619895.739,28.320,44.434,34.180,23.926,87.891,0
1539619895.743,25.879,42.480,39.062,16.113,55.664,0
1539619895.747,26.367,44.434,37.598,12.695,59.082,0
1539619895.751,29.297,43.945,24.414,18.555,-11.230,0
1539619895.755,23.926,41.016,24.902,21.973,-28.809,0
1539619895.758,20.996,39.062,26.367,19.043,9.277,0
1539619895.762,21.484,40.039,24.902,15.137,15.137,0
1539619895.766,21.973,41.016,25.391,16.113,7.812,0
1539619895.770,21.973,41.992,29.785,20.508,32.227,0
1539619895.774,26.855,42.969,32.227,21.973,34.180,0
1539619895.778,25.879,41.504,32.227,17.578,8.789,0
1539619895.782,21.973,41.504,32.227,19.531,49.805,0
1539619895.786,26.855,37.598,34.180,23.926,75.195,0
1539619895.790,29.785,36.133,31.250,24.414,54.199,0
1539619895.794,24.902,38.574,26.855,15.625,66.406,0
1539619895.798,23.438,43.945,29.297,7.812,69.824,0
1539619895.801,23.926,46.387,34.668,12.695,21.484,0
1539619895.805,19.043,42.480,31.738,16.113,-3.906,0
1539619895.809,17.090,42.969,37.598,13.672,59.082,0
1539619895.813,23.438,43.457,40.527,19.531,102.051,0
1539619895.817,23.926,45.898,35.156,23.438,51.270,0
1539619895.821,24.902,44.922,37.109,14.648,41.992,0
1539619895.825,24.414,46.387,33.203,12.695,19.043,0
1539619895.829,22.949,44.922,34.180,16.602,40.527,0
1539619895.833,24.902,40.527,35.645,12.207,65.430,0
1539619895.837,21.973,39.551,32.227,11.230,71.289,0
1539619895.841,19.043,41.504,32.227,20.996,67.383,0
1539619895.844,23.438,40.527,35.645,20.996,49.316,0
1539619895.848,25.879,34.668,32.715,25.391,53.711,0
1539619895.852,25.391,38.086,31.250,24.902,57.129,0
1539619895.856,23.438,42.480,32.715,9.277,35.156,0
1539619895.860,27.832,42.480,35.156,14.160,1.465,0
1539619895.864,27.832,41.504,33.691,21.973,4.395,0
1539619895.868,25.879,39.062,36.133,19.531,21.484,0
1539619895.872,27.832,38.574,36.621,19.531,27.832,0
1539619895.876,28.320,40.039,30.762,24.414,31.250,0
1539619895.880,27.832,41.016,32.715,25.879,37.598,0
1539619895.883,25.391,41.992,32.227,20.996,43.457,0
1539619895.887,25.391,42.480,34.180,19.043,49.316,0
1539619895.891,24.902,41.504,32.227,19.043,51.758,0
1539619895.895,31.738,41.016,30.762,21.484,34.180,0
1539619895.899,27.832,42.480,32.227,18.555,39.062,0
1539619895.903,20.508,41.504,28.809,18.555,54.199,0
1539619895.907,23.438,39.062,30.273,24.902,37.109,0
1539619895.911,24.414,39.551,29.785,22.949,11.719,0
1539619895.915,23.926,39.551,23.926,14.648,80.078,0
1539619895.919,23.926,35.156,27.344,13.672,127.441,0
1539619895.923,22.461,36.133,31.738,19.531,63.965,0
1539619895.926,22.949,44.922,32.227,21.973,92.773,0
1539619895.930,29.785,47.363,30.273,22.949,99.609,0
1539619895.934,29.785,41.992,38.086,20.508,42.480,0
1539619895.938,26.367,40.527,38.574,20.996,15.137,0
1539619895.942,26.367,41.504,27.832,29.297,17.578,0
1539619895.946,24.414,40.527,29.297,22.461,55.176,0
1539619895.950,25.879,38.574,30.273,17.090,60.059,0
1539619895.954,23.926,38.086,34.180,21.973,24.902,0
1539619895.958,21.484,42.480,31.738,21.484,20.508,0
1539619895.962,22.461,42.480,27.832,17.578,9.766,0
1539619895.966,24.902,41.992,29.297,20.020,30.762,0
1539619895.969,25.391,41.992,34.668,18.555,23.926,0
1539619895.973,22.949,40.039,36.133,10.254,8.789,0
1539619895.977,25.879,36.133,33.691,13.672,13.672,0
1539619895.981,26.855,41.016,34.668,17.090,40.039,0
1539619895.985,31.738,45.898,33.203,17.578,78.613,0
1539619895.989,33.203,48.828,29.785,18.555,43.945,0
1539619895.993,22.949,45.410,30.762,19.531,51.758,0
1539619895.997,28.809,42.480,32.715,23.438,81.055,0
1539619896.001,35.156,43.457,33.691,21.973,76.660,0
1539619896.005,34.180,43.945,31.738,23.926,74.219,0
1539619896.008,32.227,47.363,23.926,22.461,22.461,0
1539619896.012,31.250,43.945,28.320,24.902,6.348,0
1539619896.016,38.086,40.527,32.715,25.879,15.137,0
1539619896.020,34.180,41.992,30.273,10.742,12.207,0
1539619896.024,30.762,43.945,29.785,18.066,60.547,0
1539619896.028,35.156,46.875,32.227,17.090,63.965,0
1539619896.032,37.598,45.898,29.785,7.324,-3.418,0
1539619896.036,32.715,44.434,30.762,13.672,33.203,0
1539619896.040,29.785,44.922,33.203,16.602,61.523,0
1539619896.044,29.297,40.039,31.250,18.066,31.738,0
1539619896.048,24.414,40.527,29.785,15.625,56.152,0
1539619896.051,27.832,44.922,26.855,10.742,77.148,0
1539619896.055,27.832,39.551,34.668,12.695,73.242,0
1539619896.059,27.344,40.039,36.621,8.789,59.570,0
1539619896.063,27.344,43.945,28.809,10.742,22.949,0
1539619896.067,23.438,40.527,32.227,16.113,37.598,0
1539619896.071,21.484,41.504,30.762,19.531,57.129,0
1539619896.075,21.973,42.969,30.273,16.602,56.641,0
1539619896.079,20.996,42.969,33.691,8.301,41.016,0
1539619896.083,22.461,45.898,37.598,11.719,36.133,0
1539619896.087,24.902,45.898,37.109,15.137,48.828,0
1539619896.091,20.020,44.922,38.086,11.719,62.012,0
1539619896.094,25.391,41.016,38.086,14.160,34.668,0
1539619896.098,33.691,40.039,39.062,17.090,-1.465,0
1539619896.102,20.508,44.434,37.598,14.648,4.883,0
1539619896.106,17.090,47.363,34.668,18.066,65.430,0
1539619896.110,20.996,43.457,37.598,18.066,59.082,0
1539619896.114,23.438,41.016,44.434,18.066,105.469,0
1539619896.118,29.297,46.387,40.039,17.578,71.289,0
1539619896.122,28.809,47.852,34.180,15.137,11.230,0
1539619896.126,26.367,44.434,32.715,16.113,90.332,0
1539619896.130,26.367,46.387,30.762,12.207,117.676,0
1539619896.133,24.414,42.480,32.715,13.184,97.656,0
1539619896.137,25.391,41.016,35.645,19.043,92.285,0
1539619896.141,23.926,47.852,36.133,17.578,63.477,0
1539619896.145,28.320,45.410,35.645,20.996,13.184,0
1539619896.149,30.762,41.504,36.621,20.508,7.812,0
1539619896.153,31.250,41.016,38.086,18.555,7.324,0
1539619896.157,34.668,41.992,32.715,19.043,12.207,0
1539619896.161,31.250,42.969,33.203,18.066,45.898,0
1539619896.165,29.785,43.945,38.574,24.414,54.688,0
1539619896.169,35.645,42.480,33.203,24.902,44.922,0
1539619896.173,40.039,41.992,40.527,29.785,47.363,0
1539619896.176,30.762,47.363,38.574,32.715,54.688,0
1539619896.180,27.832,44.434,28.320,25.391,62.988,0
1539619896.184,32.227,41.504,28.320,21.484,64.941,0
1539619896.188,25.391,44.434,31.250,18.555,-13.184,0
1539619896.192,25.879,45.410,34.668,21.484,-36.621,0
1539619896.196,28.320,44.434,29.785,20.996,6.836,0
1539619896.200,29.297,43.945,27.832,20.020,4.883,0
1539619896.204,27.832,42.969,33.203,24.902,3.418,0
1539619896.208,24.414,44.434,33.203,20.020,46.387,0
1539619896.212,30.273,44.434,34.180,16.113,59.570,0
1539619896.216,31.250,41.504,34.180,22.461,54.688,0
1539619896.219,27.344,39.551,34.180,24.902,47.363,0
1539619896.223,22.949,40.039,33.691,18.555,50.781,0
1539619896.227,26.855,44.922,28.809,19.531,60.059,0
1539619896.231,23.438,43.945,36.133,20.508,40.527,0
1539619896.235,24.902,41.016,36.133,18.066,31.250,0
1539619896.239,28.320,42.969,27.832,16.113,18.066,0
1539619896.243,20.508,43.457,28.809,20.996,-4.883,0
1539619896.247,18.066,38.086,30.273,21.484,-16.602,0
1539619896.251,20.020,38.574,30.762,15.137,34.668,0
1539619896.255,25.879,40.039,27.344,8.789,85.449,0
1539619896.258,26.855,37.109,27.344,15.137,78.125,0
1539619896.262,21.973,41.504,29.297,17.578,104.980,0
1539619896.266,22.949,45.410,30.762,12.207,71.777,0
1539619896.270,22.949,43.457,28.320,19.531,70.801,0
1539619896.274,19.531,42.480,25.391,21.484,97.168,0
1539619896.278,15.625,44.922,28.320,18.066,73.730,0
1539619896.282,15.137,43.457,30.762,18.555,61.523,0
1539619896.286,20.996,40.527,32.227,30.762,68.848,0
1539619896.290,20.996,42.480,31.250,31.738,35.645,0
1539619896.294,21.484,47.852,30.273,20.020,-13.184,0
1539619896.298,28.320,47.363,23.438,20.508,-13.672,0
1539619896.301,29.297,44.434,22.949,22.949,7.324,0
1539619896.305,32.227,48.340,31.738,28.809,37.598,0
1539619896.309,31.738,47.852,35.156,24.414,41.504,0
1539619896.313,31.250,46.387,33.691,24.902,4.883,0
1539619896.317,33.691,47.852,33.203,21.484,30.762,0
1539619896.321,28.809,43.945,33.203,18.555,89.355,0
1539619896.325,31.738,43.457,36.621,27.832,43.945,0
1539619896.329,32.715,48.828,37.109,29.297,-5.371,0
1539619896.333,30.273,48.340,34.180,25.391,45.898,0
1539619896.337,27.832,45.410,34.180,20.996,26.367,0
1539619896.341,28.809,46.387,33.203,23.438,23.438,0
1539619896.344,29.785,47.852,33.203,20.508,-0.977,0
1539619896.348,24.414,46.875,29.297,13.672,-5.371,0
1539619896.352,22.949,41.504,35.156,19.043,74.707,0
1539619896.356,25.391,41.016,36.621,22.949,39.062,0
1539619896.360,27.344,45.410,25.391,14.160,26.855,0
1539619896.364,24.414,42.969,28.320,14.648,65.430,0
1539619896.368,24.902,44.434,33.691,29.785,60.547,0
1539619896.372,20.508,47.852,35.645,25.879,72.266,0
1539619896.376,18.066,44.922,33.691,12.207,73.730,0
1539619896.380,21.973,48.340,32.715,9.277,48.828,0
1539619896.383,22.461,48.340,29.785,16.113,57.617,0
1539619896.387,21.973,40.527,29.297,22.461,41.016,0
1539619896.391,22.461,38.574,27.344,21.484,31.738,0
1539619896.395,24.414,40.527,24.414,17.090,26.855,0
1539619896.399,26.855,42.969,26.855,19.043,48.828,0
1539619896.403,24.414,46.387,29.785,19.531,76.660,0
1539619896.407,32.715,45.898,29.297,15.625,53.711,0
1539619896.411,36.133,42.969,24.902,19.043,33.203,0
1539619896.415,21.484,42.969,30.762,20.020,-5.371,0
1539619896.419,18.066,43.457,36.133,19.531,41.504,0
1539619896.423,25.391,44.922,27.344,22.461,77.148,0
1539619896.426,30.762,44.434,27.344,18.555,29.785,0
1539619896.430,26.367,43.457,31.738,22.461,36.621,0
1539619896.434,22.949,41.992,32.715,22.461,105.469,0
1539619896.438,24.414,41.504,31.250,20.996,59.082,0
1539619896.442,21.484,41.016,29.297,16.602,-30.273,0
1539619896.446,28.320,41.992,32.715,20.020,4.395,0
1539619896.450,35.645,43.945,34.668,20.020,53.223,0
1539619896.454,27.344,38.574,32.715,10.742,40.039,0
1539619896.458,23.926,39.062,34.180,23.926,46.387,0
1539619896.462,26.367,43.945,35.645,27.344,8.301,0
1539619896.466,29.785,42.480,37.598,20.508,15.137,0
1539619896.469,30.273,42.969,38.574,30.762,72.754,0
1539619896.473,29.785,42.969,36.621,32.715,55.176,0
1539619896.477,30.762,43.457,36.621,30.273,58.105,0
1539619896.481,28.809,42.480,44.434,26.367,64.941,0
1539619896.485,27.832,42.480,40.527,20.996,41.992,0
1539619896.489,29.785,45.898,32.227,28.320,31.738,0
1539619896.493,27.832,42.969,37.598,25.879,40.039,0
1539619896.497,28.320,41.992,39.062,25.879,30.273,0
1539619896.501,25.391,47.363,37.109,32.227,22.461,0
1539619896.505,26.367,45.898,36.621,29.297,25.879,0
1539619896.508,32.227,43.457,36.621,31.250,79.102,0
1539619896.512,27.344,40.527,40.527,28.320,57.617,0
1539619896.516,20.996,38.574,40.527,20.508,9.277,0
1539619896.520,21.973,43.945,39.551,21.973,28.809,0
1539619896.524,25.391,45.898,40.527,19.043,57.617,0
1539619896.528,24.902,42.969,38.086,19.531,35.645,0
1539619896.532,28.809,42.969,40.527,23.438,12.695,0
1539619896.536,28.809,44.922,38.574,14.648,39.062,0
1539619896.540,25.879,44.922,38.086,19.531,34.180,0
1539619896.544,24.902,44.434,47.852,24.414,36.133,0
1539619896.548,28.809,45.898,40.039,22.949,37.598,0
1539619896.551,25.879,44.434,31.250,28.809,-20.508,0
1539619896.555,18.555,41.504,33.691,16.113,-20.020,0
1539619896.559,24.414,46.875,32.715,15.137,39.062,0
1539619896.563,25.879,40.527,36.133,20.996,55.176,0
1539619896.567,21.484,40.039,33.691,17.578,8.301,0
1539619896.571,23.926,47.363,34.668,20.508,11.719,0
1539619896.575,27.344,46.387,40.527,24.414,44.922,0
1539619896.579,27.832,47.363,38.086,25.391,80.566,0
1539619896.583,28.320,48.340,38.574,22.461,72.754,0
1539619896.587,26.367,42.969,37.109,19.531,34.180,0
1539619896.591,23.438,39.062,35.156,19.531,76.660,0
1539619896.594,23.926,42.969,34.668,20.020,65.430,0
1539619896.598,22.461,44.434,34.180,20.508,-23.926,0
1539619896.602,20.020,41.016,43.945,15.137,25.391,0
1539619896.606,23.926,42.480,41.016,12.695,90.820,0
1539619896.610,27.344,52.246,29.785,24.902,34.180,0
1539619896.614,28.809,49.316,33.203,25.391,-9.766,0
1539619896.618,28.809,38.574,36.621,19.043,14.160,0
1539619896.622,26.855,38.574,34.180,17.090,43.457,0
1539619896.626,27.832,43.457,30.273,21.484,97.168,0
1539619896.630,29.297,43.457,32.227,22.949,97.168,0
1539619896.633,30.762,43.945,38.086,16.113,0.977,0
1539619896.637,31.738,43.457,36.133,18.555,2.441,0
1539619896.641,25.391,39.062,35.156,18.066,48.340,0
1539619896.645,24.414,41.016,37.598,20.020,65.430,0
1539619896.649,23.926,43.945,38.086,18.066,21.484,0
1539619896.653,20.996,43.945,38.086,11.719,28.809,0
1539619896.657,31.738,43.945,33.203,20.020,58.105,0
1539619896.661,33.203,42.480,31.250,21.484,26.855,0
1539619896.665,28.809,42.480,31.250,19.531,6.348,0
1539619896.669,25.391,45.898,32.227,20.508,7.324,0
1539619896.673,24.902,42.969,31.250,12.695,19.531,0
1539619896.676,25.879,41.504,28.320,15.137,-18.555,0
1539619896.680,23.438,48.340,29.297,16.602,23.926,0
1539619896.684,27.832,50.293,33.691,20.020,125.000,0
1539619896.688,26.855,45.410,34.180,20.996,65.918,0
1539619896.692,20.508,43.457,34.668,12.207,-4.395,0
1539619896.696,24.902,45.898,33.691,12.207,-3.418,0
1539619896.700,26.855,46.387,34.180,15.137,31.738,0
1539619896.704,19.043,46.387,37.109,12.207,66.895,0
1539619896.708,22.461,48.828,32.227,9.277,81.543,0
1539619896.712,31.250,50.781,29.297,16.113,89.355,0
1539619896.716,22.461,47.363,43.457,19.043,37.598,0
1539619896.719,12.695,46.387,43.945,15.137,9.766,0
1539619896.723,11.719,44.434,35.645,10.254,60.547,0
1539619896.727,9.277,42.480,38.086,5.859,75.195,0
1539619896.731,12.207,40.039,37.598,3.418,30.762,0
1539619896.735,16.113,40.039,38.086,3.906,41.992,0
1539619896.739,16.113,43.945,36.133,11.230,35.645,0
1539619896.743,18.555,42.969,36.133,11.230,1.953,0
1539619896.747,22.461,42.480,37.598,16.602,56.152,0
1539619896.751,20.996,44.434,37.598,23.438,94.238,0
1539619896.755,17.578,43.457,38.574,20.508,77.148,0
1539619896.758,26.855,39.551,39.551,24.414,4.883,0
1539619896.762,31.250,41.016,39.551,21.973,0.488,0
1539619896.766,23.438,46.387,39.551,20.996,53.711,0
1539619896.770,22.949,46.875,36.133,26.367,27.832,0
1539619896.774,21.973,44.434,42.480,19.043,12.207,0
1539619896.778,25.391,44.922,44.922,16.113,37.598,0
1539619896.782,29.297,44.922,37.109,21.484,13.184,0
1539619896.786,21.973,42.480,36.621,20.508,1.465,0
1539619896.790,19.531,40.527,37.109,17.090,1.953,0
1539619896.794,19.043,40.039,36.133,21.973,32.715,0
1539619896.798,21.484,44.434,32.715,22.461,66.895,0
1539619896.801,25.879,46.387,31.250,20.996,54.688,0
1539619896.805,22.461,46.387,35.156,24.414,83.008,0
1539619896.809,23.926,41.016,37.598,22.949,97.168,0
1539619896.813,26.855,36.621,36.133,26.367,78.125,0
1539619896.817,22.949,44.922,35.156,20.996,63.477,0
1539619896.821,21.484,44.922,38.574,18.066,81.543,0
1539619896.825,23.926,39.062,38.574,27.832,63.965,0
1539619896.829,21.973,39.062,42.480,26.855,25.391,0
1539619896.833,21.484,46.387,41.504,28.809,43.457,0
1539619896.837,31.250,45.898,33.203,29.785,30.273,0
1539619896.841,26.855,39.551,34.180,23.926,30.762,0
1539619896.844,17.578,41.504,33.691,22.461,48.340,0
1539619896.848,15.625,40.039,31.738,21.484,68.848,0
1539619896.852,13.672,40.527,31.250,21.484,68.848,0
1539619896.856,15.625,42.969,33.691,15.137,1.465,0
1539619896.860,15.625,41.504,32.227,10.742,-5.859,0
1539619896.864,15.625,43.945,30.762,18.555,36.133,0
1539619896.868,17.090,46.387,29.785,19.043,25.879,0
1539619896.872,20.020,45.898,25.879,12.207,-6.348,0
1539619896.876,19.043,42.969,25.879,13.672,4.395,0
1539619896.880,21.973,43.457,28.809,16.113,47.852,0
1539619896.883,29.785,41.992,35.645,12.207,36.133,0
1539619896.887,28.809,40.039,39.551,12.695,14.160,0
1539619896.891,31.738,45.410,28.809,20.996,1.953,0
1539619896.895,35.645,41.992,26.855,22.949,8.301,0
1539619896.899,30.762,39.062,31.250,28.809,22.949,0
1539619896.903,24.414,44.434,29.785,28.809,0.488,0
1539619896.907,26.367,43.945,28.320,28.809,64.453,0
1539619896.911,27.832,40.527,29.297,28.809,62.012,0
1539619896.915,25.391,43.457,30.273,25.879,14.648,0
1539619896.919,25.391,46.875,29.297,20.020,7.324,0
1539619896.923,23.438,42.480,30.762,16.602,43.945,0
1539619896.926,26.855,39.551,31.250,21.973,98.145,0
1539619896.930,33.203,38.574,32.715,29.297,59.082,0
1539619896.934,29.297,39.551,30.273,21.484,29.297,0
1539619896.938,30.762,42.969,25.391,16.602,23.438,0
1539619896.942,34.180,41.992,31.250,26.367,29.297,0
1539619896.946,30.273,43.945,29.785,28.320,72.266,0
1539619896.950,26.367,42.969,28.809,26.367,59.570,0
1539619896.954,27.344,42.480,33.203,26.367,-9.277,0
1539619896.958,31.738,41.992,32.715,23.926,41.992,0
1539619896.962,32.227,38.574,32.227,27.832,48.828,0
1539619896.966,30.762,49.805,30.762,30.762,9.277,0
1539619896.969,32.715,48.828,30.273,27.344,37.109,0
1539619896.973,33.691,42.480,28.809,29.785,82.520,0
1539619896.977,29.297,44.434,31.250,30.273,80.566,0
1539619896.981,33.203,38.574,36.133,33.203,29.297,0
1539619896.985,37.598,40.527,32.715,35.156,32.227,0
1539619896.989,36.621,50.781,27.344,29.785,105.469,0
1539619896.993,36.133,53.223,24.414,22.461,94.727,0
1539619896.997,24.902,53.223,25.391,23.926,49.316,0
1539619897.001,20.508,57.617,26.855,12.207,62.500,0
1539619897.005,30.273,56.152,35.645,6.348,49.316,0
1539619897.008,27.832,52.246,27.344,19.043,37.598,0
1539619897.012,21.484,51.758,18.066,18.066,59.570,0
1539619897.016,29.785,51.758,22.461,19.043,115.723,0
1539619897.020,34.668,47.363,23.438,25.391,36.621,0
1539619897.024,37.598,47.363,23.926,25.879,-17.090,0
1539619897.028,38.086,53.711,27.344,21.484,76.660,0
1539619897.032,29.785,55.664,27.344,24.414,46.387,0
1539619897.036,28.809,54.199,27.832,23.926,-19.531,0
1539619897.040,27.832,51.758,27.832,19.531,2.930,0
1539619897.044,25.879,50.781,26.367,18.555,-34.668,0
1539619897.048,28.809,50.293,24.902,20.508,-41.504,0
1539619897.051,31.738,48.340,26.855,22.949,71.289,0
1539619897.055,31.250,48.340,26.855,23.926,116.211,0
1539619897.059,27.344,45.410,28.809,18.555,75.684,0
1539619897.063,28.320,41.992,34.668,14.160,18.555,0
1539619897.067,32.227,44.922,29.297,18.066,3.906,0
1539619897.071,25.879,46.387,28.320,20.020,41.016,0
1539619897.075,26.855,47.852,29.785,23.926,69.824,0
1539619897.079,31.738,43.945,30.762,21.484,45.410,0
1539619897.083,34.180,44.434,34.668,23.438,18.066,0
1539619897.087,31.738,50.781,31.738,26.367,-0.488,0
1539619897.091,38.086,52.734,30.762,20.996,8.789,0
1539619897.094,36.621,52.246,38.086,25.879,51.270,1
1539619897.098,28.320,46.387,38.574,30.273,69.824,0
1539619897.102,26.855,43.945,35.156,24.414,86.426,0
1539619897.106,29.785,45.898,33.691,22.949,90.332,0
1539619897.110,35.645,46.387,34.180,22.949,39.062,0
1539619897.114,36.133,45.410,33.691,20.996,14.648,0
1539619897.118,30.273,45.898,32.715,21.973,36.133,0
1539619897.122,31.738,46.875,29.785,22.949,37.109,0
1539619897.126,32.227,46.387,34.180,15.625,36.133,0
1539619897.130,24.414,35.645,42.480,18.066,81.543,0
1539619897.133,25.391,32.715,32.715,20.996,63.477,0
1539619897.137,27.832,42.969,27.832,28.320,54.688,0
1539619897.141,29.785,43.945,29.785,29.297,57.129,0
1539619897.145,30.273,43.457,29.297,20.996,10.742,0
1539619897.149,26.855,44.922,30.273,21.484,50.781,0
1539619897.153,34.180,44.434,32.227,21.484,84.473,0
1539619897.157,34.668,42.969,34.180,20.020,61.523,0
1539619897.161,22.461,42.969,31.738,24.414,57.129,0
1539619897.165,29.785,41.504,32.227,27.832,68.848,0
1539619897.169,33.691,41.992,32.227,25.391,68.359,0
1539619897.173,26.855,43.457,31.738,17.578,42.480,0
1539619897.176,28.809,44.434,34.668,19.531,44.922,0
1539619897.180,26.367,42.969,35.156,19.043,34.668,0
1539619897.184,23.438,46.387,35.156,13.672,22.949,0
1539619897.188,22.461,42.969,41.016,21.973,-2.441,0
1539619897.192,23.438,39.062,29.785,18.066,20.996,0
1539619897.196,25.391,45.410,22.461,9.766,17.578,0
1539619897.200,26.855,49.805,32.227,14.160,-24.414,0
1539619897.204,23.926,48.828,33.691,16.602,23.926,0
1539619897.208,22.949,45.410,32.715,14.648,45.410,0
1539619897.212,25.391,46.387,34.668,16.113,44.922,0
1539619897.216,22.461,46.387,36.133,20.508,44.922,0
1539619897.219,14.160,44.922,36.621,19.043,25.879,0
1539619897.223,15.137,44.922,36.621,20.508,85.449,0
1539619897.227,20.020,46.387,36.133,24.902,108.887,0
1539619897.231,19.043,45.898,33.691,17.578,69.336,0
1539619897.235,22.461,43.457,33.691,16.602,48.340,0
1539619897.239,23.438,41.992,32.227,22.461,41.016,0
1539619897.243,24.414,41.016,34.668,22.461,16.602,0
1539619897.247,22.949,44.434,41.504,20.508,25.391,0
1539619897.251,28.809,46.875,33.691,25.879,55.176,0
1539619897.255,34.180,45.898,28.320,32.227,28.320,0
1539619897.258,30.273,49.316,29.785,25.879,29.785,0
1539619897.262,27.344,51.270,31.250,20.996,11.230,0
1539619897.266,31.250,48.828,31.250,25.879,7.812,0
1539619897.270,31.738,49.316,31.250,21.973,14.160,0
1539619897.274,29.785,46.875,30.273,27.344,-24.902,0
1539619897.278,32.227,49.805,30.273,27.832,-78.125,0
1539619897.282,31.738,49.805,33.691,24.902,-18.066,0
1539619897.286,28.320,42.969,34.668,21.484,12.695,0
1539619897.290,28.320,43.945,29.297,16.602,17.090,0
1539619897.294,34.668,47.852,27.344,20.508,36.621,0
1539619897.298,29.297,48.340,37.598,23.926,34.180,0
1539619897.301,20.508,44.434,41.504,20.508,63.965,0
1539619897.305,23.926,41.016,37.598,20.020,57.129,0
1539619897.309,22.461,39.551,43.457,15.625,83.008,0
1539619897.313,20.508,43.457,37.598,12.207,69.336,0
1539619897.317,21.484,41.016,30.273,21.484,87.891,0
1539619897.321,22.461,36.133,35.645,26.855,83.496,0
1539619897.325,17.090,37.109,37.598,25.391,59.082,0
1539619897.329,16.602,34.668,35.156,16.602,64.453,0
1539619897.333,19.043,38.086,36.133,18.555,77.148,0
1539619897.337,21.973,42.480,36.621,22.461,47.363,0
1539619897.341,25.391,40.527,33.691,19.043,-0.977,0
1539619897.344,21.973,42.969,31.250,15.137,28.809,0
1539619897.348,19.531,45.898,32.227,10.742,37.598,0
1539619897.352,21.973,41.992,31.738,15.625,92.285,0
1539619897.356,25.391,44.922,30.273,18.066,50.781,0
1539619897.360,25.391,45.898,33.691,14.160,27.832,0
1539619897.364,28.809,39.551,33.203,15.625,89.355,0
1539619897.368,30.762,42.969,31.738,20.996,97.168,0
1539619897.372,28.809,45.410,30.762,20.508,77.637,0
1539619897.376,26.367,44.434,31.250,19.043,11.719,0
1539619897.380,22.461,42.969,33.691,15.625,-26.367,0
1539619897.383,18.066,38.574,32.227,11.719,35.156,0
1539619897.387,19.531,38.574,31.738,9.766,80.078,0
1539619897.391,24.902,41.504,31.250,6.836,38.574,0
1539619897.395,27.344,43.945,30.273,11.230,-20.020,0
1539619897.399,27.344,44.434,34.180,16.602,-35.645,0
1539619897.403,29.785,42.969,35.645,15.137,-6.348,0
1539619897.407,30.273,45.898,35.156,14.160,-10.742,0
1539619897.411,30.273,47.363,34.668,13.184,-20.020,0
1539619897.415,29.297,43.457,33.691,8.301,43.457,0
1539619897.419,28.809,43.945,31.250,11.719,71.289,0
1539619897.423,29.785,44.434,39.062,16.113,48.340,0
1539619897.426,30.273,40.527,45.410,15.625,41.504,0
1539619897.430,26.367,41.992,32.715,15.625,22.461,0
1539619897.434,21.973,42.969,32.227,11.719,75.195,0
1539619897.438,25.879,43.457,35.156,2.930,105.469,0
1539619897.442,25.391,47.852,29.297,0.977,92.773,0
1539619897.446,20.020,43.457,24.414,5.859,56.641,0
1539619897.450,18.555,35.645,25.391,11.230,7.324,0
1539619897.454,23.926,42.969,30.762,9.766,53.223,0
1539619897.458,24.414,43.945,31.738,6.348,82.031,0
1539619897.462,22.461,43.945,30.762,7.324,32.715,0
1539619897.466,24.902,45.410,31.738,10.742,42.969,0
1539619897.469,22.949,44.922,30.273,11.230,84.473,0
1539619897.473,24.902,44.922,30.762,10.254,47.363,0
1539619897.477,29.785,45.410,28.809,5.859,6.836,0
1539619897.481,21.973,44.922,31.250,0.000,-9.277,0
1539619897.485,20.508,43.945,32.227,4.395,-28.809,0
1539619897.489,25.391,43.457,24.414,8.789,41.504,0
1539619897.493,23.926,41.992,29.297,9.766,92.285,0
1539619897.497,22.949,43.945,30.762,7.812,77.148,0
1539619897.501,23.926,44.434,29.297,9.766,73.730,0
1539619897.505,26.855,43.457,30.273,18.066,64.453,0
1539619897.508,25.391,39.551,34.180,14.160,20.508,0
1539619897.512,30.762,39.062,38.086,22.461,5.859,0
1539619897.516,26.855,42.480,37.598,19.043,47.363,0
1539619897.520,17.578,41.992,35.156,9.277,56.641,0
1539619897.524,16.113,39.062,33.203,9.766,33.691,0
1539619897.528,20.508,41.992,33.203,4.883,37.598,0
1539619897.532,19.043,40.527,31.738,9.277,22.949,0
1539619897.536,12.207,38.086,30.273,11.719,56.641,0
1539619897.540,16.602,40.527,31.738,5.371,70.312,0
1539619897.544,10.254,41.016,35.156,7.324,47.852,0
1539619897.548,12.207,38.086,29.785,9.277,49.316,0
1539619897.551,18.066,43.457,25.879,6.348,45.410,0
1539619897.555,20.996,46.875,27.832,6.836,29.785,0
1539619897.559,24.902,39.062,31.738,8.301,5.859,0
1539619897.563,21.484,33.691,33.203,15.137,-7.812,0
1539619897.567,16.602,39.062,26.855,16.113,-35.645,0
1539619897.571,16.602,43.945,26.855,4.883,39.062,0
1539619897.575,19.043,42.480,29.297,-1.953,97.168,0
1539619897.579,22.461,43.457,28.809,4.883,73.730,0
1539619897.583,20.996,41.992,29.297,9.766,82.031,0
1539619897.587,16.602,38.574,25.879,11.719,13.672,0
1539619897.591,13.672,39.062,25.391,9.277,9.766,0
1539619897.594,11.719,38.574,30.762,3.418,51.270,0
1539619897.598,17.090,37.598,30.273,6.836,78.613,0
1539619897.602,15.137,35.645,33.203,0.000,69.824,0
1539619897.606,20.020,37.598,34.180,-6.836,16.602,0
1539619897.610,23.926,45.410,29.297,16.113,20.020,0
1539619897.614,20.996,39.551,32.715,18.555,-15.137,0
1539619897.618,32.715,37.598,33.691,19.531,-44.434,0
1539619897.622,28.809,46.387,34.180,19.531,39.551,0
1539619897.626,19.531,45.410,32.715,10.742,83.008,0
1539619897.630,21.973,42.480,31.250,15.625,28.320,0
1539619897.633,21.484,39.551,29.785,15.625,33.203,0
1539619897.637,20.996,39.551,28.809,10.742,76.660,0
1539619897.641,18.066,39.062,31.250,14.160,31.738,0
1539619897.645,18.066,37.598,32.715,19.531,32.227,0
1539619897.649,19.043,37.598,30.273,19.043,48.828,0
1539619897.653,20.020,39.551,33.203,13.184,35.156,0
1539619897.657,22.949,41.504,33.691,8.789,85.938,0
1539619897.661,27.344,37.598,27.832,12.207,51.758,0
1539619897.665,30.273,41.992,29.297,10.254,-20.508,0
1539619897.669,27.832,40.039,31.738,11.230,36.133,0
1539619897.673,25.391,34.668,32.227,19.531,15.625,0
1539619897.676,23.926,41.504,28.320,11.719,2.441,0
1539619897.680,24.902,40.527,30.762,8.301,10.254,0
1539619897.684,23.438,41.504,28.320,11.230,37.109,0
1539619897.688,18.555,42.480,25.391,6.348,28.320,0
1539619897.692,19.043,42.969,31.250,8.789,-0.488,0
1539619897.696,26.367,43.945,33.203,19.043,34.180,0
1539619897.700,29.785,43.945,32.715,18.066,75.684,0
1539619897.704,27.344,41.016,33.203,15.137,96.680,0
1539619897.708,25.879,37.598,34.180,20.020,105.469,0
1539619897.712,30.273,41.016,31.250,15.137,97.656,0
1539619897.716,29.297,43.945,35.645,8.301,106.934,0
1539619897.719,27.344,35.156,40.039,19.531,58.105,0
1539619897.723,28.320,37.109,32.227,17.090,15.137,0
1539619897.727,27.344,49.316,32.715,7.812,72.266,0
1539619897.731,26.367,47.363,31.250,13.184,22.461,0
1539619897.735,28.320,46.387,31.738,20.020,-1.953,0
1539619897.739,28.809,45.898,32.227,17.578,14.160,0
1539619897.743,26.367,42.480,31.250,13.184,-15.137,0
1539619897.747,26.855,41.992,32.227,17.090,31.250,0
1539619897.751,33.691,43.945,29.785,19.531,47.852,0
1539619897.755,38.086,44.922,31.738,8.301,16.113,0
1539619897.758,25.879,43.945,34.180,11.719,72.754,0
1539619897.762,18.555,41.504,31.250,20.020,55.176,0
1539619897.766,21.484,38.086,32.227,18.066,51.270,0
1539619897.770,20.020,37.109,39.551,9.277,97.656,0
1539619897.774,18.066,37.598,31.738,8.789,54.199,0
1539619897.778,21.484,41.016,27.832,17.090,19.043,0
1539619897.782,21.973,42.969,30.762,15.137,28.809,0
1539619897.786,22.461,45.898,26.855,13.672,66.406,0
1539619897.790,25.879,42.969,27.832,15.625,75.195,0
1539619897.794,25.391,42.480,27.832,17.578,41.992,0
1539619897.798,25.391,44.922,29.297,16.602,11.230,0
1539619897.801,25.879,40.039,26.855,11.719,38.086,0
1539619897.805,22.949,38.574,20.996,9.277,46.875,0
1539619897.809,26.855,38.574,25.879,15.137,53.711,0
1539619897.813,28.809,39.062,28.320,15.137,95.703,0
1539619897.817,24.414,35.645,29.297,16.602,74.219,0
1539619897.821,20.996,35.156,30.762,19.043,49.316,0
1539619897.825,26.855,40.039,32.227,13.672,50.293,0
1539619897.829,22.949,41.992,33.203,14.648,24.902,0
1539619897.833,10.742,40.527,37.598,14.160,67.871,0
1539619897.837,16.113,40.039,35.156,15.625,88.379,0
1539619897.841,19.531,42.480,29.785,23.926,29.785,0
1539619897.844,17.090,39.062,34.668,27.344,37.109,0
1539619897.848,16.602,38.574,36.133,21.484,14.648,0
1539619897.852,17.578,44.922,35.156,16.113,-18.555,0
1539619897.856,27.344,44.434,32.715,19.043,17.090,0
1539619897.860,30.273,44.922,33.691,23.438,55.176,0
1539619897.864,24.902,45.410,35.645,18.555,8.789,0
1539619897.868,22.461,43.457,32.715,11.230,-11.230,0
1539619897.872,30.273,43.457,35.156,19.531,12.207,0
1539619897.876,33.203,45.898,35.156,26.367,57.617,0
1539619897.880,27.832,48.340,31.738,25.879,83.984,0
1539619897.883,24.902,47.852,32.227,28.320,52.246,0
1539619897.887,24.902,46.387,32.715,23.926,68.848,0
1539619897.891,23.438,45.898,34.668,22.949,58.105,0
1539619897.895,20.508,45.898,30.762,29.297,25.879,0
1539619897.899,18.066,43.945,32.715,24.902,62.012,0
1539619897.903,17.090,46.875,38.574,17.578,33.691,0
1539619897.907,19.043,43.457,32.715,17.578,-8.789,0
1539619897.911,22.461,38.574,35.156,23.438,38.574,0
1539619897.915,20.996,43.945,37.109,19.043,110.840,0
1539619897.919,19.043,42.969,36.133,13.672,132.812,0
1539619897.923,25.391,39.551,36.133,15.625,23.926,0
1539619897.926,30.762,44.434,33.203,19.043,-11.719,0
1539619897.930,28.320,48.340,29.785,17.578,5.859,0
1539619897.934,29.785,42.480,33.203,14.648,-2.441,0
1539619897.938,27.344,41.016,34.668,14.160,14.648,0
1539619897.942,22.949,40.039,33.691,19.531,37.109,0
1539619897.946,22.949,40.527,36.621,16.602,119.141,0
1539619897.950,23.926,46.387,33.691,8.301,72.266,0
1539619897.954,26.367,42.480,34.180,18.066,9.766,0
1539619897.958,25.879,41.992,39.062,18.555,43.457,0
1539619897.962,22.949,42.480,32.227,15.137,39.551,0
1539619897.966,23.438,43.457,32.715,19.043,43.945,0
1539619897.969,27.832,41.016,36.621,10.742,59.082,0
1539619897.973,32.715,39.551,35.156,13.672,0.488,0
1539619897.977,26.367,46.387,34.668,16.113,1.465,0
1539619897.981,25.879,47.363,35.645,14.160,29.297,0
1539619897.985,28.320,45.410,36.133,21.973,36.621,0
1539619897.989,29.297,42.969,34.180,24.414,67.383,0
1539619897.993,36.133,42.969,33.691,21.484,51.270,0
1539619897.997,36.133,43.945,36.621,15.137,-24.902,0
1539619898.001,32.715,42.969,35.156,16.113,-57.129,0
1539619898.005,31.738,44.922,34.668,20.508,-27.832,0
1539619898.008,34.668,46.387,34.180,18.066,50.293,0
1539619898.012,35.645,49.805,29.785,22.949,68.848,0
1539619898.016,31.250,44.922,34.668,18.066,82.520,0
1539619898.020,35.645,39.062,35.645,16.602,85.449,0
1539619898.024,41.504,41.992,28.809,23.926,23.438,0
1539619898.028,39.062,42.969,29.785,27.344,-30.762,0
1539619898.032,34.668,46.875,32.227,28.809,-2.930,0
1539619898.036,34.668,48.340,33.203,23.926,62.500,0
1539619898.040,35.645,45.898,34.668,26.855,122.070,0
1539619898.044,31.250,43.457,32.227,26.855,85.449,0
1539619898.048,28.320,45.898,27.832,20.508,-3.906,0
1539619898.051,30.762,46.875,30.273,19.531,16.113,0
1539619898.055,34.668,46.875,28.809,25.879,56.641,0
1539619898.059,31.250,44.922,28.809,24.902,40.527,0
1539619898.063,28.320,43.457,31.738,20.020,67.871,0
1539619898.067,31.738,44.922,26.367,25.879,35.645,0
1539619898.071,30.762,46.387,20.996,26.367,-3.418,0
1539619898.075,23.926,45.410,31.250,18.066,42.480,0
1539619898.079,21.484,43.945,39.551,17.578,53.223,0
1539619898.083,31.250,42.480,29.785,21.484,-0.488,0
1539619898.087,35.156,46.875,30.273,17.090,17.578,0
1539619898.091,28.320,52.246,34.180,18.555,29.785,0
1539619898.094,27.344,52.246,35.156,20.996,39.551,0
1539619898.098,23.438,51.758,35.156,7.812,39.551,0
1539619898.102,20.996,51.270,35.156,4.883,-13.184,0
1539619898.106,21.973,50.781,33.203,10.742,-13.672,0
1539619898.110,23.926,45.410,33.203,10.254,-35.645,0
1539619898.114,20.508,46.875,36.621,12.207,-20.508,0
1539619898.118,17.090,47.852,35.645,7.324,28.320,0
1539619898.122,20.020,42.969,31.250,9.277,-35.645,0
1539619898.126,23.926,43.457,30.273,18.555,-38.086,0
1539619898.130,17.090,43.457,37.598,11.230,0.488,0
1539619898.133,14.648,45.898,40.039,10.742,-1.953,0
1539619898.137,19.043,47.363,33.691,16.113,33.203,0
1539619898.141,16.602,44.434,39.062,16.113,35.645,0
1539619898.145,20.508,44.434,37.109,17.090,32.715,0
1539619898.149,23.438,47.363,29.297,20.996,76.172,0
1539619898.153,20.996,43.945,30.762,18.066,104.004,0
1539619898.157,22.949,41.504,28.809,14.160,90.820,0
1539619898.161,27.344,47.852,31.738,14.648,101.074,0
1539619898.165,27.344,48.828,31.250,27.344,117.676,0
1539619898.169,24.902,45.410,31.250,26.367,85.449,0
1539619898.173,27.344,47.852,32.227,14.160,130.859,0
1539619898.176,27.832,50.293,29.785,12.207,119.141,0
1539619898.180,23.926,45.898,27.832,13.184,57.617,0
1539619898.184,26.855,43.945,29.297,17.578,51.270,0
1539619898.188,29.785,45.898,30.762,24.414,22.949,0
1539619898.192,22.949,44.434,29.785,16.602,1.953,0
1539619898.196,18.555,42.480,27.344,12.695,58.594,0
1539619898.200,20.508,42.969,35.156,15.137,74.707,0
1539619898.204,21.973,41.992,36.133,14.648,35.645,0
1539619898.208,24.414,40.527,21.484,8.301,36.621,0
1539619898.212,31.250,35.645,28.320,13.672,82.031,0
1539619898.216,26.855,31.250,37.109,26.855,90.820,0
1539619898.219,22.461,36.133,37.109,25.391,75.195,0
1539619898.223,23.926,41.016,36.621,23.438,28.809,0
1539619898.227,22.949,42.969,34.180,22.461,22.461,0
1539619898.231,22.949,41.504,34.668,20.996,73.730,0
1539619898.235,25.391,37.598,37.598,20.508,52.734,0
1539619898.239,23.926,37.109,33.691,18.066,22.949,0
1539619898.243,18.066,39.062,32.715,21.484,-18.555,0
1539619898.247,19.043,38.574,34.180,23.926,2.441,0
1539619898.251,22.949,41.504,33.691,18.555,35.156,0
1539619898.255,25.391,44.922,31.250,17.090,16.113,0
1539619898.258,24.414,41.016,38.086,13.672,14.648,0
1539619898.262,21.484,41.992,36.621,15.137,25.879,0
1539619898.266,21.484,43.945,23.926,20.020,42.969,0
1539619898.270,20.996,40.039,27.832,14.160,81.055,0
1539619898.274,21.973,37.109,33.203,15.625,106.445,0
1539619898.278,24.902,39.551,33.691,15.625,121.094,0
1539619898.282,24.414,46.387,31.738,11.719,89.355,0
1539619898.286,26.367,46.387,30.273,26.367,31.738,0
1539619898.290,28.320,41.016,31.738,25.391,33.203,0
1539619898.294,23.438,41.504,33.203,20.508,92.773,0
1539619898.298,24.414,44.922,29.297,19.043,30.273,0
1539619898.301,27.832,44.922,26.855,21.484,0.488,0
1539619898.305,32.715,45.410,33.203,28.320,60.059,0
1539619898.309,37.109,46.875,35.156,31.250,-9.766,0
1539619898.313,32.227,42.969,31.738,24.902,-12.207,0
1539619898.317,30.273,42.480,30.762,21.973,42.480,0
1539619898.321,34.668,42.969,40.527,19.531,38.574,0
1539619898.325,32.227,39.062,44.922,16.113,22.949,0
1539619898.329,28.320,36.621,32.227,22.461,20.508,0
1539619898.333,28.320,46.387,32.715,27.344,28.809,0
1539619898.337,34.180,51.270,36.133,28.320,41.992,0
1539619898.341,33.203,50.293,32.227,24.902,65.918,0
1539619898.344,28.809,50.781,27.344,18.555,71.777,0
1539619898.348,28.320,52.246,30.273,22.461,53.223,0
1539619898.352,21.973,47.852,34.180,22.461,85.449,0
1539619898.356,22.461,44.434,31.738,7.812,81.543,0
1539619898.360,26.367,44.922,33.691,15.137,34.180,0
1539619898.364,24.414,41.504,34.668,22.949,30.762,0
1539619898.368,29.785,43.945,33.691,15.137,45.898,0
1539619898.372,31.738,47.852,30.762,19.531,49.316,0
1539619898.376,26.367,44.922,25.879,20.508,25.879,0
1539619898.380,26.367,43.945,23.926,19.531,-13.672,0
1539619898.383,21.973,45.898,30.273,14.160,-20.996,0
1539619898.387,18.555,42.969,33.691,10.742,-2.930,0
1539619898.391,22.949,41.992,24.414,17.578,-9.277,0
1539619898.395,28.809,47.363,24.902,19.531,-21.484,0
1539619898.399,29.785,48.340,27.344,20.996,-4.883,0
1539619898.403,26.855,44.434,28.320,19.531,-8.301,0
1539619898.407,26.855,43.457,28.809,19.043,-3.418,0
1539619898.411,24.414,42.480,31.250,21.973,46.875,0
1539619898.415,27.832,41.504,32.227,19.043,41.992,0
1539619898.419,28.320,44.434,26.367,16.602,52.246,0
1539619898.423,25.879,45.410,27.344,20.996,62.500,0
1539619898.426,24.414,40.039,30.273,22.461,-14.160,0
1539619898.430,23.438,39.062,23.926,14.160,0.488,0
1539619898.434,23.926,37.109,20.996,11.719,13.672,0
1539619898.438,22.461,37.598,23.926,11.230,0.977,0
1539619898.442,22.949,38.086,28.809,12.207,37.598,0
1539619898.446,25.879,34.180,33.203,18.066,48.340,0
1539619898.450,26.367,36.621,25.391,19.531,66.406,0
1539619898.454,28.809,42.480,25.879,19.531,33.691,0
1539619898.458,29.297,41.992,29.297,16.602,-22.949,0
1539619898.462,24.414,40.039,27.344,10.742,2.930,0
1539619898.466,23.438,42.480,26.367,8.301,24.902,0
1539619898.469,21.484,40.527,26.367,8.789,11.230,0
1539619898.473,20.996,40.039,28.320,11.230,17.090,0
1539619898.477,23.438,41.016,31.738,9.766,31.738,0
1539619898.481,22.949,40.527,28.809,11.719,94.238,0
1539619898.485,21.973,44.922,29.297,10.254,75.195,1
1539619898.489,21.484,42.969,34.668,12.695,26.855,0
1539619898.493,26.367,42.480,28.320,17.578,32.715,0
1539619898.497,28.320,39.062,34.668,20.996,50.293,0
1539619898.501,29.785,38.086,37.598,19.531,61.523,0
1539619898.505,32.227,44.922,25.391,12.207,20.508,0
1539619898.508,30.273,42.480,26.367,13.672,46.875,0
1539619898.512,27.344,47.363,24.902,19.043,25.879,0
1539619898.516,26.367,48.340,27.344,14.160,20.020,0
1539619898.520,30.273,39.062,28.809,9.277,70.801,0
1539619898.524,26.367,41.992,26.855,14.648,41.016,0
1539619898.528,22.949,44.922,25.391,22.461,16.602,0
1539619898.532,26.367,43.457,27.344,17.578,79.102,0
1539619898.536,27.344,42.969,32.715,13.672,66.406,0
1539619898.540,23.926,43.945,32.227,20.020,54.688,0
1539619898.544,20.996,41.504,30.762,18.066,104.980,0
1539619898.548,20.020,40.527,32.715,13.184,92.285,0
1539619898.551,22.949,42.969,30.762,15.625,123.535,0
1539619898.555,24.414,34.668,32.715,13.184,64.453,0
1539619898.559,20.996,38.086,37.598,13.672,6.836,0
1539619898.563,25.391,48.828,30.762,14.160,15.625,0
1539619898.567,25.879,46.387,27.344,7.812,59.570,0
1539619898.571,21.484,44.922,24.902,15.137,53.223,0
1539619898.575,20.508,44.434,26.855,17.090,-2.930,0
1539619898.579,19.043,42.969,30.762,12.695,54.688,0
1539619898.583,17.578,42.480,30.762,12.695,84.473,0
1539619898.587,19.531,43.457,31.250,11.719,47.363,0
1539619898.591,26.855,44.434,28.320,9.766,50.781,0
1539619898.594,28.809,38.086,25.879,13.672,39.062,0
1539619898.598,24.414,38.086,30.762,15.625,81.543,0
1539619898.602,23.438,45.898,30.762,11.230,40.039,0
1539619898.606,23.926,46.875,28.809,12.207,-20.508,0
1539619898.610,25.879,44.434,29.785,7.812,8.789,0
1539619898.614,26.367,44.922,22.461,7.812,36.621,0
1539619898.618,23.926,42.480,31.738,13.184,48.828,0
1539619898.622,27.832,43.457,38.574,14.160,11.719,0
1539619898.626,30.762,44.434,24.414,19.531,4.883,0
1539619898.630,26.855,41.016,28.320,20.996,25.391,0
1539619898.633,29.785,41.504,29.785,17.578,33.203,0
1539619898.637,29.297,42.969,24.902,20.508,-15.625,0
1539619898.641,26.855,41.504,28.320,24.902,13.672,0
1539619898.645,28.320,44.434,30.762,18.066,50.781,0
1539619898.649,23.926,49.805,26.367,10.742,4.883,0
1539619898.653,22.461,45.898,28.809,12.207,49.316,0
1539619898.657,25.879,39.062,36.621,19.531,67.871,0
1539619898.661,20.996,41.992,33.203,14.648,106.934,0
1539619898.665,22.461,42.969,33.203,15.137,60.059,0
1539619898.669,25.391,40.039,35.645,19.043,12.695,0
1539619898.673,26.367,41.504,30.273,14.648,50.781,0
1539619898.676,26.367,42.969,28.320,20.020,2.930,0
1539619898.680,21.973,38.574,35.156,16.113,11.230,0
1539619898.684,21.484,36.133,34.668,12.207,59.570,0
1539619898.688,20.020,35.645,29.297,20.020,17.578,0
1539619898.692,18.066,30.762,28.320,19.043,23.926,0
1539619898.696,20.508,35.645,28.809,7.812,15.137,0
1539619898.700,18.066,43.945,30.762,11.719,65.918,0
1539619898.704,16.602,43.457,29.785,14.160,84.961,0
1539619898.708,17.578,42.969,29.297,11.230,20.020,0
1539619898.712,20.508,42.480,29.785,15.137,34.668,0
1539619898.716,22.949,41.016,27.832,16.602,68.848,0
1539619898.719,19.043,39.551,27.344,12.207,60.547,0
1539619898.723,18.555,40.039,30.273,14.648,46.387,0
1539619898.727,17.578,44.434,29.297,20.508,70.312,0
1539619898.731,17.578,43.945,31.738,18.066,73.730,0
1539619898.735,22.949,42.969,38.086,20.508,13.184,0
1539619898.739,20.508,42.480,40.527,20.996,30.273,0
1539619898.743,20.508,37.109,34.668,15.625,38.574,0
1539619898.747,19.043,39.551,33.203,18.066,38.574,0
1539619898.751,20.020,45.410,31.738,18.555,71.777,0
1539619898.755,28.320,45.898,32.227,14.160,50.781,0
1539619898.758,29.297,46.387,32.715,20.508,17.578,0
1539619898.762,27.832,49.316,32.227,27.344,4.883,0
1539619898.766,25.391,48.340,36.621,25.879,69.336,0
1539619898.770,17.578,42.969,39.551,16.602,90.820,0
1539619898.774,17.578,39.551,41.504,16.113,76.172,0
1539619898.778,21.484,40.039,41.992,19.531,35.156,0
1539619898.782,22.949,36.133,36.621,18.066,-19.531,0
1539619898.786,20.996,36.133,39.062,17.578,47.852,0
1539619898.790,19.531,40.039,40.527,16.602,64.453,0
1539619898.794,16.113,37.598,45.898,18.066,43.945,0
1539619898.798,15.625,43.945,42.969,22.461,64.941,0
1539619898.801,23.438,50.293,31.738,20.020,16.113,0
1539619898.805,24.902,45.410,34.180,18.066,46.875,0
1539619898.809,21.973,41.504,32.227,12.207,69.824,0
1539619898.813,22.461,38.574,32.227,11.230,16.602,0
1539619898.817,23.926,35.156,36.133,17.090,63.477,0
1539619898.821,25.391,40.039,36.621,15.137,60.059,0
1539619898.825,31.738,45.410,34.180,16.602,15.625,0
1539619898.829,30.273,43.457,33.203,16.602,61.035,0
1539619898.833,27.832,41.504,35.156,12.207,56.641,0
1539619898.837,26.855,42.969,32.715,9.766,21.973,0
1539619898.841,20.020,42.969,28.320,22.461,62.988,0
1539619898.844,22.461,40.039,25.391,28.809,69.824,0
1539619898.848,24.414,41.016,21.484,10.254,18.555,0
1539619898.852,22.461,35.156,37.109,6.836,37.598,0
1539619898.856,22.949,32.715,41.504,16.113,54.688,0
1539619898.860,28.320,43.457,28.320,17.090,44.434,0
1539619898.864,29.297,46.387,27.344,19.531,74.219,0
1539619898.868,23.926,42.480,29.297,18.555,62.988,0
1539619898.872,25.879,44.434,29.785,20.996,53.223,0
1539619898.876,25.879,44.922,27.832,25.879,24.414,0
1539619898.880,22.949,39.551,29.785,19.531,14.648,0
1539619898.883,20.996,38.086,27.832,17.090,43.945,0
1539619898.887,22.949,41.504,27.832,24.414,41.992,0
1539619898.891,28.809,41.504,31.738,24.902,54.688,0
1539619898.895,23.926,42.969,34.668,16.113,-2.441,0
1539619898.899,21.484,49.316,33.691,12.695,10.254,0
1539619898.903,24.414,39.062,30.273,21.484,76.172,0
1539619898.907,23.926,37.109,25.879,22.949,24.902,0
1539619898.911,21.484,44.922,39.062,12.695,28.809,0
1539619898.915,21.973,43.945,41.016,14.160,37.598,0
1539619898.919,23.438,43.457,32.227,19.043,-6.836,0
1539619898.923,24.414,41.016,36.133,18.555,-1.953,0
1539619898.926,29.785,44.434,34.668,20.996,9.766,0
1539619898.930,23.926,46.387,29.297,14.648,0.000,0
1539619898.934,25.391,43.457,31.250,18.066,21.484,0
1539619898.938,31.250,44.434,38.574,22.461,-0.977,0
1539619898.942,25.391,41.992,37.598,13.672,19.043,0
1539619898.946,20.996,40.527,35.156,15.137,30.762,0
1539619898.950,22.461,36.133,33.203,17.578,14.160,0
1539619898.954,20.996,36.621,31.738,15.137,59.570,0
1539619898.958,24.414,44.434,35.645,17.578,44.434,0
1539619898.962,31.250,46.875,37.598,22.461,7.812,0
1539619898.966,32.227,46.875,35.645,18.555,32.715,0
1539619898.969,29.785,39.551,34.180,23.926,84.473,0
1539619898.973,25.879,40.527,35.156,28.809,64.941,0
1539619898.977,23.438,44.434,39.062,20.020,19.043,0
1539619898.981,26.367,45.410,33.203,18.066,-4.395,0
1539619898.985,26.855,45.410,32.227,14.160,72.754,0
1539619898.989,22.461,45.410,31.738,14.648,72.266,0
1539619898.993,22.461,47.363,27.344,17.578,70.312,0
1539619898.997,24.414,45.898,32.715,13.184,65.430,0
1539619899.001,24.902,46.387,35.645,15.137,5.859,0
1539619899.005,24.902,41.016,34.180,13.672,24.902,0
1539619899.008,24.902,36.621,34.180,13.184,53.223,0
1539619899.012,20.020,43.457,31.738,20.020,46.875,0
1539619899.016,18.066,43.457,30.273,14.648,40.039,0
1539619899.020,22.949,41.504,33.691,13.184,46.875,0
1539619899.024,19.531,43.457,35.645,18.066,61.523,0
1539619899.028,19.043,44.922,32.227,19.531,36.621,0
1539619899.032,24.414,42.480,35.156,17.578,-24.414,0
1539619899.036,22.461,41.016,40.039,18.066,11.719,0
1539619899.040,25.391,46.387,33.691,16.602,48.828,0
1539619899.044,29.297,50.293,36.621,20.996,69.824,0
1539619899.048,28.809,44.922,36.133,25.391,41.504,0
1539619899.051,31.738,40.039,33.203,20.020,52.246,0
1539619899.055,30.273,47.363,40.527,20.996,48.828,0
1539619899.059,25.391,48.340,43.457,16.113,11.230,0
1539619899.063,21.484,41.992,41.504,14.160,20.996,0
1539619899.067,18.066,44.922,37.109,13.672,34.180,0
1539619899.071,21.484,45.410,37.109,14.160,-0.488,0
1539619899.075,24.414,43.945,38.574,9.766,5.859,0
1539619899.079,24.902,44.922,36.621,9.766,0.488,0
1539619899.083,17.578,41.992,39.551,13.184,24.414,0
1539619899.087,16.113,41.992,41.504,11.719,67.383,0
1539619899.091,18.555,43.945,32.227,13.672,5.859,0
1539619899.094,19.043,41.992,34.180,22.949,38.086,0
1539619899.098,25.879,40.527,37.598,15.137,37.109,0
1539619899.102,27.344,41.016,34.180,14.160,-18.555,0
1539619899.106,26.367,44.434,33.691,23.438,29.785,0
1539619899.110,25.879,48.828,36.621,16.113,-3.418,0
1539619899.114,22.949,47.363,34.180,17.090,-13.184,0
1539619899.118,22.461,42.480,32.227,11.719,24.414,0
1539619899.122,18.066,41.992,33.203,8.789,1.465,0
1539619899.126,15.137,43.945,29.785,14.648,-18.066,0
1539619899.130,20.020,43.457,28.809,11.719,50.293,0
1539619899.133,18.555,42.480,29.785,6.348,108.398,0
1539619899.137,19.043,42.969,30.273,11.719,49.316,0
1539619899.141,20.508,40.527,41.504,17.578,6.836,0
1539619899.145,22.461,42.480,38.574,17.090,34.668,0
1539619899.149,28.320,41.504,26.855,15.625,47.852,0
1539619899.153,27.832,37.109,32.227,18.555,55.664,0
1539619899.157,22.461,35.156,33.203,20.996,76.172,0
1539619899.161,25.391,42.969,30.273,14.160,29.297,0
1539619899.165,30.762,46.875,29.785,14.648,15.625,0
1539619899.169,22.461,42.480,30.273,16.113,20.508,0
1539619899.173,22.461,43.945,29.297,17.090,96.680,0
1539619899.176,28.809,42.969,31.738,20.996,118.652,0
1539619899.180,29.297,41.504,34.668,18.066,55.664,0
1539619899.184,25.391,41.016,32.715,17.578,23.926,0
1539619899.188,26.855,41.504,35.156,19.531,15.625,0
1539619899.192,30.273,42.480,33.203,22.461,28.320,0
1539619899.196,26.855,42.969,29.785,19.043,3.418,0
1539619899.200,29.785,41.016,30.273,25.879,40.039,0
1539619899.204,28.320,40.527,37.598,28.809,77.637,0
1539619899.208,23.438,37.598,35.645,15.137,84.961,0
1539619899.212,29.785,34.180,27.344,16.113,56.641,0
1539619899.216,32.715,39.062,28.809,25.391,69.336,0
1539619899.219,29.297,41.504,27.832,26.367,77.637,0
1539619899.223,24.902,42.969,31.250,20.996,82.031,0
1539619899.227,22.949,45.410,30.273,24.414,65.918,0
1539619899.231,24.414,43.457,25.391,26.367,31.738,0
1539619899.235,26.855,42.480,32.227,23.438,83.008,0
1539619899.239,26.367,41.504,34.668,21.484,72.266,0
1539619899.243,29.297,41.016,27.832,24.902,61.035,0
1539619899.247,32.227,42.969,30.762,27.344,20.996,0
1539619899.251,28.809,45.410,35.156,29.297,60.059,0
1539619899.255,27.832,44.922,35.156,28.320,51.758,0
1539619899.258,23.926,42.480,35.645,24.414,19.043,0
1539619899.262,26.367,43.457,31.250,25.391,63.477,0
1539619899.266,21.484,44.434,30.273,17.578,44.922,0
1539619899.270,17.578,43.945,35.645,10.254,66.406,0
1539619899.274,21.973,40.527,31.738,14.160,83.496,0
1539619899.278,18.555,37.598,30.762,18.066,26.855,0
1539619899.282,19.043,43.945,30.273,18.555,37.598,0
1539619899.286,19.043,51.758,28.320,20.996,91.797,0
1539619899.290,23.926,48.340,30.762,23.438,11.719,0
1539619899.294,22.949,48.340,32.715,20.508,24.414,0
1539619899.298,19.043,45.898,34.180,20.508,65.430,0
1539619899.301,23.926,45.898,33.691,25.879,43.457,0
1539619899.305,26.855,46.875,32.227,20.996,34.180,0
1539619899.309,29.785,47.363,32.227,20.996,41.016,0
1539619899.313,32.227,51.270,34.668,25.391,83.496,0
1539619899.317,27.344,47.852,30.762,23.926,33.691,0
1539619899.321,21.973,46.387,30.762,20.020,-4.395,0
1539619899.325,21.484,41.504,41.016,14.648,52.246,0
1539619899.329,23.926,40.039,34.668,13.672,73.730,0
1539619899.333,21.484,46.875,29.785,8.301,50.781,0
1539619899.337,18.555,46.875,35.156,13.184,47.852,0
1539619899.341,23.438,49.805,33.203,20.020,86.914,0
1539619899.344,21.973,51.270,34.668,20.020,72.754,0
1539619899.348,18.555,51.758,36.621,22.461,47.852,0
1539619899.352,21.973,51.270,37.109,22.461,19.043,0
1539619899.356,21.484,45.898,35.156,14.648,-4.883,0
1539619899.360,16.602,46.875,32.227,15.137,34.180,0
1539619899.364,20.020,49.316,35.645,20.020,26.367,0
1539619899.368,22.949,45.410,38.574,14.648,15.137,0
1539619899.372,24.414,44.922,34.668,15.625,45.410,0
1539619899.376,19.531,45.898,31.250,15.137,60.547,0
1539619899.380,16.113,43.945,32.715,17.578,17.090,0
1539619899.383,21.484,42.480,36.133,16.602,34.668,0
1539619899.387,20.996,42.969,41.504,11.230,65.918,0
1539619899.391,15.625,43.945,38.086,16.113,66.895,0
1539619899.395,18.066,41.992,33.691,19.531,95.703,0
1539619899.399,19.531,38.574,35.645,20.996,86.426,0
1539619899.403,17.578,42.480,37.109,16.113,51.758,0
1539619899.407,16.113,44.434,35.645,11.719,24.902,0
1539619899.411,16.602,40.527,35.156,13.672,29.297,0
1539619899.415,15.137,38.086,32.715,12.695,68.848,0
1539619899.419,13.672,39.551,32.715,13.672,70.801,0
1539619899.423,14.160,36.133,32.227,10.254,46.387,0
1539619899.426,14.648,30.762,30.762,10.254,27.832,0
1539619899.430,19.531,37.598,31.250,16.113,67.383,0
1539619899.434,19.531,44.434,32.227,15.137,48.828,0
1539619899.438,16.602,42.969,32.227,14.648,48.828,0
1539619899.442,18.555,41.992,30.273,18.066,81.543,0
1539619899.446,17.090,42.480,34.180,17.090,46.875,0
1539619899.450,14.648,41.992,38.086,9.766,18.555,0
1539619899.454,15.137,39.062,27.344,11.719,62.012,0
1539619899.458,13.184,37.598,23.438,20.508,22.461,0
1539619899.462,15.137,40.039,30.762,14.160,35.156,0
1539619899.466,18.066,39.551,29.297,2.441,88.867,0
1539619899.469,20.020,34.180,28.809,8.301,84.961,0
1539619899.473,12.695,32.715,29.297,8.789,59.082,0
1539619899.477,14.160,41.016,26.367,8.301,19.531,0
1539619899.481,18.066,43.945,27.344,17.090,34.180,0
1539619899.485,18.555,41.016,26.855,10.254,48.340,0
1539619899.489,36.621,41.992,26.367,13.672,58.105,0
1539619899.493,34.180,39.062,32.227,11.719,30.762,0
1539619899.497,15.137,23.926,35.156,-0.488,16.113,0
1539619899.501,12.207,23.438,26.367,9.766,26.367,0
1539619899.505,22.949,44.922,24.902,11.230,23.438,0
1539619899.508,29.785,54.688,30.762,23.438,53.223,0
1539619899.512,54.199,37.598,2.930,34.668,23.926,0
1539619899.516,96.191,-35.156,-61.523,51.758,-27.832,0
1539619899.520,64.941,-45.410,-67.871,48.828,5.371,0
1539619899.524,9.766,20.508,22.461,31.738,95.703,0
1539619899.528,60.059,44.922,22.949,78.613,79.590,0
1539619899.532,90.820,17.578,-46.387,53.711,32.715,0
1539619899.536,60.547,-89.844,-18.066,29.297,57.129,0
1539619899.540,69.336,-78.125,-7.324,95.215,61.035,0
1539619899.544,137.695,82.520,-2.930,132.812,71.289,0
1539619899.548,150.391,97.168,-45.410,126.465,38.574,0
1539619899.551,27.344,44.434,-10.254,43.945,42.480,0
1539619899.555,-27.832,61.523,75.195,-12.695,30.273,0
1539619899.559,20.996,21.973,47.852,16.602,-8.301,0
1539619899.563,64.453,-20.996,37.598,53.711,32.227,0
1539619899.567,60.547,6.836,25.879,76.660,55.664,0
1539619899.571,42.480,95.703,-1.465,66.895,11.719,0
1539619899.575,50.781,133.789,80.078,53.711,-55.176,0
1539619899.579,61.523,136.719,127.441,74.707,-8.789,0
1539619899.583,53.223,154.297,109.863,85.449,63.965,0
1539619899.587,61.523,150.391,114.746,91.797,51.270,0
1539619899.591,72.266,146.973,120.605,100.586,41.992,0
1539619899.594,82.031,156.250,135.742,116.699,35.645,0
1539619899.598,86.914,172.852,152.832,127.930,20.508,0
1539619899.602,76.660,192.871,158.691,132.324,34.668,0
1539619899.606,77.148,210.938,167.969,143.555,62.500,0
1539619899.610,80.078,226.562,180.664,148.438,-15.625,0
1539619899.614,75.684,242.188,196.289,147.949,-16.113,0
1539619899.618,74.707,266.602,203.613,159.668,14.160,0
