timestamps,TP9,AF7,AF8,TP10,Right AUX,Marker0
1539620496.653,36.621,43.457,37.598,42.480,51.758,0
1539620496.657,34.668,40.527,39.062,43.457,36.133,0
1539620496.661,31.738,39.062,41.504,43.457,84.473,0
1539620496.665,30.762,41.504,41.504,41.016,84.473,0
1539620496.669,27.344,36.133,35.645,36.621,32.227,0
1539620496.673,33.691,31.250,36.621,40.039,20.020,0
1539620496.676,38.574,34.180,41.016,40.039,-20.508,0
1539620496.680,26.855,41.016,40.039,35.645,7.812,0
1539620496.684,16.113,31.738,38.086,30.273,-4.883,0
1539620496.688,20.996,29.297,36.621,34.180,1.465,0
1539620496.692,24.902,45.410,37.598,39.062,45.410,0
1539620496.696,23.438,43.457,39.551,38.086,84.961,0
1539620496.700,25.879,28.809,36.133,33.203,38.086,0
1539620496.704,25.391,36.133,33.203,32.715,1.953,0
1539620496.708,24.414,43.457,32.227,34.668,48.340,0
1539620496.712,22.461,33.691,30.273,31.738,37.109,0
1539620496.716,23.926,38.574,32.227,33.691,9.277,0
1539620496.719,25.879,41.504,36.621,35.156,47.852,0
1539620496.723,27.832,39.551,37.598,35.156,48.340,0
1539620496.727,30.273,36.133,37.109,27.832,21.973,0
1539620496.731,31.250,32.227,40.039,23.926,41.504,0
1539620496.735,32.227,45.410,38.574,32.227,80.078,0
1539620496.739,31.738,41.016,37.598,33.691,76.660,0
1539620496.743,30.762,32.227,36.621,26.855,62.500,0
1539620496.747,27.344,37.598,30.762,28.809,40.039,0
1539620496.751,21.973,33.203,28.809,30.762,-12.207,0
1539620496.755,27.344,25.879,28.320,33.203,-2.930,0
1539620496.758,31.250,38.086,31.250,36.621,42.969,0
1539620496.762,26.855,42.969,36.621,37.598,48.828,0
1539620496.766,30.273,38.086,34.180,35.645,58.594,0
1539620496.770,34.180,38.574,32.227,35.156,36.133,0
1539620496.774,27.832,27.344,37.109,33.691,19.531,0
1539620496.778,25.879,26.367,34.180,30.273,60.059,0
1539620496.782,23.438,35.645,30.762,28.320,35.645,0
1539620496.786,20.996,28.809,33.203,36.621,20.508,0
1539620496.790,22.461,26.367,34.180,33.691,64.941,0
1539620496.794,26.367,36.133,35.645,34.180,86.426,0
1539620496.798,29.785,30.273,35.645,40.527,42.969,0
1539620496.801,28.320,20.508,36.133,35.645,44.922,0
1539620496.805,28.809,22.949,36.621,31.250,50.293,0
1539620496.809,35.645,18.555,35.156,26.855,-2.930,0
1539620496.813,33.203,20.508,37.109,28.809,-7.324,0
1539620496.817,23.438,20.508,38.574,28.809,-9.766,0
1539620496.821,23.438,24.414,37.109,25.879,-7.812,0
1539620496.825,23.438,38.086,35.645,31.738,7.812,0
1539620496.829,24.902,39.062,35.645,35.156,11.719,0
1539620496.833,29.785,32.715,35.645,38.086,39.551,0
1539620496.837,29.297,33.691,35.645,37.598,67.383,0
1539620496.841,29.785,39.551,35.156,36.621,54.688,0
1539620496.844,29.297,37.598,36.133,39.062,50.293,0
1539620496.848,25.879,28.809,31.738,38.086,71.777,0
1539620496.852,26.855,27.832,29.297,36.133,43.457,0
1539620496.856,27.344,26.367,33.203,33.691,4.395,0
1539620496.860,26.855,25.879,38.574,36.133,-17.090,0
1539620496.864,24.902,27.832,38.574,35.156,76.172,0
1539620496.868,20.508,32.227,33.691,31.738,69.824,0
1539620496.872,22.461,38.086,33.691,34.668,-33.203,0
1539620496.876,25.391,33.203,36.621,36.621,-6.836,0
1539620496.880,24.414,40.527,37.109,39.062,63.477,0
1539620496.883,22.949,47.363,37.598,41.016,59.570,0
1539620496.887,23.438,45.898,35.156,32.715,47.363,0
1539620496.891,22.461,34.180,31.250,26.367,40.039,0
1539620496.895,20.508,29.297,33.203,27.344,-36.621,0
1539620496.899,20.996,38.574,33.691,24.902,-43.945,0
1539620496.903,20.508,40.039,29.785,25.879,41.016,0
1539620496.907,25.879,28.320,34.180,30.762,22.461,0
1539620496.911,29.785,19.531,38.574,23.926,25.879,0
1539620496.915,23.926,22.461,36.621,22.461,46.387,0
1539620496.919,20.508,40.527,38.086,29.785,55.664,0
1539620496.923,18.066,43.945,37.598,28.809,45.898,0
1539620496.926,13.672,40.527,36.133,25.879,7.812,0
1539620496.930,14.160,46.387,38.574,28.320,64.453,0
1539620496.934,17.578,38.574,39.062,28.809,49.316,0
1539620496.938,17.090,33.691,36.621,23.926,-12.207,0
1539620496.942,19.531,37.109,35.645,23.926,-14.160,0
1539620496.946,20.020,36.621,34.668,26.855,26.855,0
1539620496.950,11.230,31.738,32.715,19.531,64.453,0
1539620496.954,11.719,24.902,35.156,16.602,43.945,0
1539620496.958,15.137,30.273,36.133,18.066,21.973,0
1539620496.962,15.625,32.227,37.598,21.484,2.930,0
1539620496.966,17.090,30.273,39.062,31.250,30.762,0
1539620496.969,17.578,35.645,37.109,32.715,70.312,0
1539620496.973,21.973,36.133,40.039,33.691,48.828,0
1539620496.977,28.809,38.086,39.062,40.039,16.602,0
1539620496.981,26.855,38.574,30.762,33.203,14.160,0
1539620496.985,18.066,36.133,31.738,27.832,31.738,0
1539620496.989,24.414,40.527,32.227,33.203,40.039,0
1539620496.993,28.320,45.898,31.250,27.832,40.039,0
1539620496.997,21.484,40.039,27.832,26.367,45.898,0
1539620497.001,26.855,38.086,23.438,29.785,59.570,0
1539620497.005,21.973,37.109,25.391,25.879,52.734,0
1539620497.008,15.625,35.156,26.367,25.879,16.113,0
1539620497.012,19.531,33.691,25.879,27.344,42.480,0
1539620497.016,20.508,31.250,27.344,27.344,79.102,0
1539620497.020,22.461,37.598,25.391,25.391,41.992,0
1539620497.024,25.391,43.945,27.344,25.879,53.711,0
1539620497.028,27.832,38.086,35.156,30.762,73.242,0
1539620497.032,29.297,22.949,35.645,28.320,4.883,0
1539620497.036,33.203,34.668,29.297,27.832,-59.082,0
1539620497.040,32.715,44.434,28.809,35.645,-23.926,0
1539620497.044,28.320,39.062,33.203,36.133,51.270,0
1539620497.048,29.785,39.062,34.180,36.133,84.473,0
1539620497.051,29.297,37.598,32.227,32.715,62.988,0
1539620497.055,26.855,39.062,27.832,32.715,36.621,0
1539620497.059,23.438,33.691,26.855,31.738,68.359,0
1539620497.063,26.367,34.668,27.832,30.762,63.965,0
1539620497.067,28.809,46.387,26.855,35.645,58.105,0
1539620497.071,24.414,39.551,30.762,39.551,3.418,0
1539620497.075,23.926,37.109,32.227,36.621,27.344,0
1539620497.079,28.809,44.434,32.227,39.062,78.125,0
1539620497.083,34.668,47.363,34.668,42.480,55.664,0
1539620497.087,35.645,34.668,31.738,39.062,58.105,0
1539620497.091,36.621,25.879,32.227,42.480,40.039,0
1539620497.094,33.691,35.645,31.738,40.039,21.484,0
1539620497.098,34.180,39.551,31.250,37.109,13.672,0
1539620497.102,38.086,37.109,32.227,38.574,65.918,0
1539620497.106,33.691,32.715,30.273,32.227,50.293,0
1539620497.110,33.691,42.969,31.250,32.227,-8.789,0
1539620497.114,37.109,50.781,31.738,38.574,17.090,0
1539620497.118,38.086,40.527,31.738,43.945,20.996,0
1539620497.122,38.574,34.180,30.762,43.457,35.645,0
1539620497.126,37.598,34.668,31.738,37.598,36.621,0
1539620497.130,36.133,33.203,36.133,35.645,15.625,0
1539620497.133,41.016,28.809,36.133,33.203,36.133,0
1539620497.137,40.039,31.250,34.180,34.180,41.504,0
1539620497.141,32.227,32.715,32.227,30.762,69.336,0
1539620497.145,33.203,30.273,31.738,25.879,45.410,0
1539620497.149,32.715,21.973,35.156,22.461,-1.465,0
1539620497.153,31.250,26.855,38.574,21.484,56.641,0
1539620497.157,35.645,50.293,41.504,26.855,60.547,0
1539620497.161,33.691,46.387,42.480,32.227,-20.996,0
1539620497.165,32.715,38.086,39.551,37.109,-19.531,0
1539620497.169,37.109,41.016,38.086,37.598,23.438,0
1539620497.173,32.715,44.922,41.504,35.645,83.984,0
1539620497.176,28.320,40.039,42.969,38.086,79.590,0
1539620497.180,28.809,36.621,40.527,34.180,61.523,0
1539620497.184,23.926,38.574,36.133,27.832,28.809,0
1539620497.188,22.949,35.156,34.180,31.250,-26.855,0
1539620497.192,35.156,32.227,41.992,43.457,6.836,0
1539620497.196,41.504,33.691,41.992,38.574,47.363,0
1539620497.200,24.902,49.316,39.062,14.648,44.922,0
1539620497.204,7.324,50.293,39.551,5.371,-5.859,0
1539620497.208,6.348,41.504,37.109,9.277,28.809,0
1539620497.212,7.324,41.992,35.645,6.836,35.645,0
1539620497.216,1.465,48.340,34.180,0.488,-11.230,0
1539620497.219,0.977,51.758,39.551,0.000,29.785,0
1539620497.223,-3.906,42.480,39.062,-4.395,14.648,0
1539620497.227,-7.812,41.016,33.203,-8.301,-46.387,0
1539620497.231,-9.766,42.480,34.180,-4.883,0.488,0
1539620497.235,-5.859,35.156,31.738,-1.465,12.695,0
1539620497.239,0.000,26.855,30.273,0.000,-12.695,0
1539620497.243,5.371,30.273,33.691,4.883,-23.438,0
1539620497.247,11.230,46.387,32.227,10.742,-4.883,0
1539620497.251,15.137,41.992,32.227,14.160,22.949,0
1539620497.255,23.438,26.855,33.691,17.578,47.363,0
1539620497.258,24.414,38.086,34.668,12.207,15.137,0
1539620497.262,19.043,46.387,36.133,21.973,-11.230,0
1539620497.266,28.320,41.504,35.645,27.344,0.000,0
1539620497.270,33.691,41.016,34.668,21.973,-21.484,0
1539620497.274,28.809,39.551,31.738,25.391,24.414,0
1539620497.278,25.879,37.598,34.180,20.996,48.828,0
1539620497.282,25.391,31.738,35.156,13.184,25.391,0
1539620497.286,27.832,28.809,33.691,15.137,45.410,0
1539620497.290,26.367,36.133,34.668,13.672,-3.418,0
1539620497.294,20.508,37.109,32.715,9.277,-52.734,0
1539620497.298,25.391,31.738,34.668,17.090,-38.086,0
1539620497.301,29.297,36.133,36.621,22.461,15.137,0
1539620497.305,29.785,37.109,36.133,23.926,40.527,0
1539620497.309,32.227,28.809,29.785,23.926,32.715,0
1539620497.313,33.203,28.320,28.809,27.344,45.898,0
1539620497.317,35.156,36.621,34.180,34.180,69.336,0
1539620497.321,37.109,43.945,33.691,41.992,69.336,0
1539620497.325,36.621,46.875,35.645,42.480,70.801,0
1539620497.329,28.809,40.527,37.109,32.227,10.742,0
1539620497.333,27.344,38.086,37.598,25.391,-27.344,0
1539620497.337,29.297,46.875,38.574,26.855,62.988,0
1539620497.341,27.832,41.992,37.598,28.320,75.684,0
1539620497.344,26.367,27.344,37.109,28.320,1.953,0
1539620497.348,26.855,34.668,35.645,33.203,13.184,0
1539620497.352,27.344,45.898,34.180,34.668,30.762,0
1539620497.356,30.273,36.133,34.180,33.203,60.547,0
1539620497.360,28.320,33.691,33.691,35.156,83.008,0
1539620497.364,23.438,33.691,35.645,30.762,21.973,0
1539620497.368,27.832,25.391,34.180,32.227,50.293,0
1539620497.372,27.832,24.902,28.809,38.086,60.059,0
1539620497.376,23.438,32.227,32.227,32.715,83.008,0
1539620497.380,21.973,31.738,35.645,28.809,77.148,2
1539620497.383,23.438,35.156,33.691,25.879,5.859,0
1539620497.387,28.320,32.227,33.203,28.809,80.078,0
1539620497.391,31.250,25.879,34.668,34.180,80.566,0
1539620497.395,24.414,44.434,33.691,33.203,117.676,0
1539620497.399,22.949,42.969,32.227,34.180,98.633,0
1539620497.403,27.344,30.273,30.273,34.180,0.977,0
1539620497.407,27.832,27.832,27.832,36.621,-1.465,0
1539620497.411,24.902,28.809,29.297,34.668,3.906,0
1539620497.415,22.949,32.227,30.273,31.738,66.406,0
1539620497.419,21.484,29.297,27.832,29.297,74.219,0
1539620497.423,25.391,25.879,27.832,33.691,11.230,0
1539620497.426,24.414,31.738,27.832,31.250,-4.883,0
1539620497.430,15.137,40.039,27.832,20.020,-32.715,0
1539620497.434,17.578,34.180,25.879,18.555,2.930,0
1539620497.438,18.555,36.133,27.832,18.555,60.547,0
1539620497.442,13.672,47.852,31.250,18.555,60.059,0
1539620497.446,11.719,35.645,28.809,16.113,7.812,0
1539620497.450,10.254,25.879,26.855,10.254,12.207,0
1539620497.454,12.695,30.273,28.320,13.184,46.387,0
1539620497.458,16.113,39.062,27.832,19.531,-4.883,0
1539620497.462,16.113,39.062,30.762,21.484,-20.996,0
1539620497.466,12.695,37.109,31.250,16.113,5.859,0
1539620497.469,15.137,29.297,30.273,19.043,6.836,0
1539620497.473,17.090,34.180,32.227,22.461,40.039,0
1539620497.477,20.508,38.574,28.320,22.461,68.359,0
1539620497.481,24.414,32.715,26.855,26.855,36.133,0
1539620497.485,21.973,48.828,30.273,28.809,21.484,0
1539620497.489,24.414,55.664,27.344,33.203,59.570,0
1539620497.493,24.902,43.945,26.367,29.785,52.734,0
1539620497.497,22.461,38.086,28.320,28.809,-3.418,0
1539620497.501,19.043,44.922,31.250,33.691,0.000,0
1539620497.505,17.090,46.875,32.715,32.715,45.898,0
1539620497.508,20.996,41.992,32.227,33.203,19.531,0
1539620497.512,22.461,39.551,30.273,32.227,17.090,0
1539620497.516,21.484,40.039,32.715,33.691,38.086,0
1539620497.520,24.414,41.992,36.621,38.086,-19.531,0
1539620497.524,30.273,38.086,35.645,32.715,17.578,0
1539620497.528,21.973,37.598,35.645,24.902,81.055,0
1539620497.532,16.602,43.945,34.180,29.297,50.781,0
1539620497.536,21.484,38.086,37.598,37.598,32.227,0
1539620497.540,22.949,35.645,39.062,35.645,42.480,0
1539620497.544,23.438,39.551,37.109,29.297,78.125,0
1539620497.548,20.020,40.527,38.574,28.809,46.875,0
1539620497.551,19.043,33.203,36.621,28.809,-53.711,0
1539620497.555,22.461,34.180,35.156,29.297,-15.625,0
1539620497.559,24.902,39.062,38.574,32.227,7.812,0
1539620497.563,27.344,24.902,39.062,35.156,33.691,0
1539620497.567,29.785,20.508,38.574,32.227,70.312,0
1539620497.571,26.367,28.809,37.109,27.344,40.039,0
1539620497.575,20.996,43.945,34.668,28.320,7.812,0
1539620497.579,23.926,47.363,35.156,30.762,4.883,0
1539620497.583,23.926,36.621,36.621,26.367,-1.953,0
1539620497.587,24.414,37.109,36.133,27.832,-7.324,0
1539620497.591,24.414,40.039,37.598,30.762,28.809,0
1539620497.594,24.414,37.109,43.457,29.785,-13.184,0
1539620497.598,27.832,33.691,41.992,31.738,-1.465,0
1539620497.602,21.484,36.133,42.969,33.691,67.383,0
1539620497.606,14.160,35.645,43.457,32.227,19.043,0
1539620497.610,18.066,27.832,37.109,32.715,1.465,0
1539620497.614,19.043,20.996,36.621,32.715,20.996,0
1539620497.618,14.648,20.508,38.574,29.785,9.277,0
1539620497.622,12.207,34.668,33.691,29.297,52.246,0
1539620497.626,14.160,38.574,29.785,24.414,61.035,0
1539620497.630,18.555,33.203,30.273,21.484,1.953,0
1539620497.633,18.555,36.133,33.203,24.902,-1.465,0
1539620497.637,21.973,34.668,34.668,28.809,7.324,0
1539620497.641,23.926,31.250,34.668,32.715,30.762,0
1539620497.645,22.949,34.180,33.203,29.785,94.727,0
1539620497.649,25.391,36.621,29.297,26.367,77.637,0
1539620497.653,26.367,32.227,30.273,30.273,29.785,0
1539620497.657,24.414,25.879,31.738,29.297,48.828,0
1539620497.661,27.344,32.227,31.250,27.832,40.527,0
1539620497.665,24.414,32.227,31.250,27.832,109.863,0
1539620497.669,20.508,22.949,32.715,34.668,125.977,0
1539620497.673,22.949,28.320,34.668,31.250,55.664,0
1539620497.676,22.461,34.180,35.156,20.996,45.410,0
1539620497.680,21.973,45.898,34.180,29.785,85.938,0
1539620497.684,23.438,42.969,33.203,30.273,96.680,0
1539620497.688,28.809,39.551,33.203,27.344,67.871,0
1539620497.692,26.367,34.668,26.855,26.367,22.949,0
1539620497.696,22.949,39.551,24.902,24.414,39.551,0
1539620497.700,26.855,41.504,32.227,28.809,76.660,0
1539620497.704,28.809,30.762,33.691,29.785,62.988,0
1539620497.708,37.109,32.715,31.250,33.203,-8.789,0
1539620497.712,30.273,39.062,33.203,33.203,-7.324,0
1539620497.716,20.508,36.133,38.086,28.320,34.180,0
1539620497.719,25.879,24.902,41.992,33.691,52.246,0
1539620497.723,24.414,23.438,39.551,32.227,65.918,0
1539620497.727,24.414,29.785,35.645,26.367,21.484,0
1539620497.731,24.414,30.762,35.645,28.320,21.484,0
1539620497.735,25.879,30.273,36.621,34.668,74.707,0
1539620497.739,31.738,31.250,35.156,36.133,45.410,0
1539620497.743,32.715,30.762,32.715,33.691,31.738,0
1539620497.747,30.762,29.297,32.227,32.227,47.852,0
1539620497.751,26.367,21.973,26.855,33.203,18.555,0
1539620497.755,23.926,12.695,26.367,28.320,-8.789,0
1539620497.758,28.809,27.832,29.297,26.367,-19.043,0
1539620497.762,31.738,32.715,29.297,31.250,-16.113,0
1539620497.766,27.344,27.344,32.715,27.344,43.457,0
1539620497.770,25.391,39.551,31.738,24.902,59.570,0
1539620497.774,28.809,39.551,29.785,32.227,21.973,0
1539620497.778,31.250,33.691,33.691,39.551,45.898,0
1539620497.782,35.645,35.156,34.668,35.645,43.945,0
1539620497.786,33.691,34.668,34.668,37.109,11.719,0
1539620497.790,24.414,37.598,32.715,38.574,55.176,0
1539620497.794,21.484,36.133,30.273,33.691,80.566,0
1539620497.798,24.414,32.227,33.203,33.691,56.641,0
1539620497.801,25.391,30.762,36.133,34.668,11.230,0
1539620497.805,30.762,34.668,35.645,38.574,-7.812,0
1539620497.809,34.668,28.809,34.668,39.062,22.949,0
1539620497.813,26.855,27.832,36.621,34.180,-2.441,0
1539620497.817,24.414,39.062,36.621,34.180,-14.160,0
1539620497.821,29.297,38.086,33.691,36.621,-16.113,0
1539620497.825,30.273,36.621,33.203,38.574,11.719,0
1539620497.829,23.926,40.527,34.668,41.016,14.160,0
1539620497.833,27.344,43.945,32.227,41.504,17.578,0
1539620497.837,34.668,44.434,28.809,41.992,13.184,0
1539620497.841,33.203,43.457,32.715,41.992,17.090,0
1539620497.844,32.227,35.645,36.621,40.527,49.805,0
1539620497.848,32.227,40.527,35.645,37.109,65.918,0
1539620497.852,26.855,44.434,38.086,34.180,72.266,0
1539620497.856,25.879,37.109,39.551,31.738,48.340,0
1539620497.860,29.785,53.223,35.645,34.180,62.500,0
1539620497.864,27.832,55.664,35.156,38.086,71.777,0
1539620497.868,29.297,40.039,34.668,30.273,31.738,0
1539620497.872,31.738,39.062,35.156,28.809,-8.789,0
1539620497.876,33.203,41.016,35.645,36.133,5.859,0
1539620497.880,35.156,33.203,32.715,40.039,71.289,0
1539620497.883,35.156,34.180,27.344,37.598,67.383,0
1539620497.887,34.668,40.039,28.809,39.551,-0.977,0
1539620497.891,30.273,38.086,33.203,38.574,9.277,0
1539620497.895,27.344,34.668,32.715,31.250,23.438,0
1539620497.899,30.273,29.785,33.203,31.738,12.207,0
1539620497.903,29.785,39.551,32.715,27.832,12.207,0
1539620497.907,28.320,56.152,33.691,30.762,-13.672,0
1539620497.911,29.785,48.340,32.227,35.156,0.488,0
1539620497.915,25.879,43.457,33.691,31.250,12.207,0
1539620497.919,23.926,47.852,38.086,27.344,15.625,0
1539620497.923,27.344,42.969,37.598,25.879,29.785,0
1539620497.926,27.832,34.180,36.133,31.738,26.367,0
1539620497.930,25.879,34.668,35.645,34.668,-2.441,0
1539620497.934,28.809,42.480,36.133,35.645,29.785,0
1539620497.938,31.738,33.203,34.668,41.992,51.758,0
1539620497.942,31.738,20.020,35.156,44.922,37.109,0
1539620497.946,29.297,26.367,36.621,39.062,87.402,0
1539620497.950,25.879,45.410,34.180,35.645,100.098,0
1539620497.954,30.762,51.758,34.668,38.574,36.621,0
1539620497.958,34.180,43.945,34.668,42.969,20.996,0
1539620497.962,31.250,44.434,32.227,37.598,30.762,0
1539620497.966,24.414,49.316,28.809,22.461,24.414,0
1539620497.969,20.020,43.945,27.344,26.855,31.738,0
1539620497.973,20.508,39.062,26.367,30.273,43.457,0
1539620497.977,23.438,44.434,25.879,25.879,71.777,0
1539620497.981,21.484,43.945,23.438,26.367,90.332,0
1539620497.985,19.531,35.156,25.391,31.250,44.434,0
1539620497.989,26.855,29.785,32.227,39.551,62.988,0
1539620497.993,29.785,37.109,32.227,38.574,106.934,0
1539620497.997,28.320,50.293,30.762,36.621,41.992,0
1539620498.001,29.297,43.457,35.156,43.457,19.531,0
1539620498.005,29.297,37.598,34.668,50.293,32.227,0
1539620498.008,29.785,32.227,32.715,46.875,-0.488,0
1539620498.012,31.738,31.250,30.273,38.574,28.809,0
1539620498.016,34.180,42.480,27.832,38.574,32.715,0
1539620498.020,36.133,47.363,29.785,39.551,61.523,0
1539620498.024,37.598,50.781,31.250,40.527,95.703,0
1539620498.028,39.551,47.852,27.344,43.945,101.074,0
1539620498.032,39.062,36.621,24.902,43.945,56.641,0
1539620498.036,32.715,29.297,26.855,39.062,41.504,0
1539620498.040,32.715,42.969,26.855,38.086,69.824,0
1539620498.044,31.250,41.504,31.738,43.457,14.160,0
1539620498.048,27.344,31.250,33.203,45.898,10.742,0
1539620498.051,33.203,34.668,30.273,39.551,73.730,0
1539620498.055,33.203,36.133,29.297,38.086,90.820,0
1539620498.059,32.227,32.715,27.832,41.504,42.969,0
1539620498.063,33.203,25.879,27.832,41.992,0.977,0
1539620498.067,32.715,19.531,28.809,39.062,9.277,0
1539620498.071,29.785,24.414,27.344,31.250,-17.578,0
1539620498.075,30.273,26.367,25.879,30.762,-31.738,0
1539620498.079,36.133,22.949,26.367,35.645,10.254,0
1539620498.083,37.109,26.855,26.367,37.598,46.387,0
1539620498.087,34.180,36.133,24.902,34.668,19.043,0
1539620498.091,31.250,41.992,27.344,25.879,1.953,0
1539620498.094,30.762,38.574,29.785,32.227,16.113,0
1539620498.098,32.227,38.086,32.227,32.227,-57.617,0
1539620498.102,30.273,46.875,33.691,30.273,-34.180,0
1539620498.106,32.227,39.062,33.203,40.039,52.246,0
1539620498.110,30.762,28.809,35.156,38.574,16.602,0
1539620498.114,26.367,38.574,35.645,33.691,17.578,0
1539620498.118,26.367,39.551,33.691,33.203,-0.977,0
1539620498.122,23.926,28.809,33.691,36.133,-5.371,0
1539620498.126,22.949,24.902,34.180,36.133,51.758,0
1539620498.130,23.438,31.250,32.715,32.227,68.848,0
1539620498.133,25.879,40.039,35.156,30.762,58.105,0
1539620498.137,27.832,29.785,39.062,32.227,32.715,0
1539620498.141,28.320,18.555,37.109,30.273,46.875,0
1539620498.145,27.832,39.551,33.691,27.832,17.578,0
1539620498.149,28.320,42.969,33.691,29.785,18.066,0
1539620498.153,26.855,34.180,36.133,32.715,32.715,0
1539620498.157,26.367,39.062,37.109,35.156,27.344,0
1539620498.161,30.273,40.039,37.109,36.133,14.160,0
1539620498.165,30.273,35.645,36.621,33.691,-11.719,0
1539620498.169,26.855,33.203,33.691,27.344,57.129,0
1539620498.173,28.320,29.297,37.109,30.762,59.570,0
1539620498.176,25.879,28.809,38.574,35.645,32.227,0
1539620498.180,20.508,36.621,36.133,27.832,60.059,0
1539620498.184,24.414,29.297,37.109,21.484,18.555,0
1539620498.188,27.832,23.438,39.062,21.973,15.625,0
1539620498.192,25.391,37.109,35.156,24.902,29.297,0
1539620498.196,20.508,41.504,35.156,24.902,53.711,0
1539620498.200,18.555,31.738,39.551,23.438,104.004,0
1539620498.204,19.043,29.785,35.645,22.949,105.957,0
1539620498.208,20.508,39.062,34.180,23.926,97.168,0
1539620498.212,20.020,34.668,35.645,23.438,50.293,0
1539620498.216,17.578,29.297,34.668,21.973,55.664,0
1539620498.219,20.996,29.785,38.574,31.250,55.176,0
1539620498.223,24.902,30.762,37.598,33.691,53.223,0
1539620498.227,21.484,25.391,34.180,24.902,18.555,0
1539620498.231,23.438,22.949,37.598,19.531,-35.156,0
1539620498.235,22.949,34.180,37.109,20.020,-45.410,0
1539620498.239,19.531,37.109,39.551,23.438,-27.832,0
1539620498.243,19.043,30.762,39.062,18.555,13.184,0
1539620498.247,19.043,25.879,37.109,18.066,37.109,0
1539620498.251,15.625,30.762,36.621,23.438,51.758,0
1539620498.255,15.137,28.320,33.203,23.438,11.230,0
1539620498.258,14.648,24.902,31.738,22.949,45.898,0
1539620498.262,15.625,30.273,34.668,24.902,82.520,0
1539620498.266,21.484,31.250,38.086,23.926,43.945,0
1539620498.270,19.531,31.250,36.621,23.926,61.035,0
1539620498.274,14.648,23.438,36.621,20.508,59.082,0
1539620498.278,13.672,19.531,34.180,20.508,45.410,0
1539620498.282,13.672,35.645,34.180,23.438,36.621,0
1539620498.286,19.531,39.062,37.598,24.414,92.773,0
1539620498.290,22.461,35.645,33.203,24.902,109.863,0
1539620498.294,20.020,40.527,28.809,26.855,39.062,0
1539620498.298,20.020,41.504,35.156,30.273,56.641,0
1539620498.301,20.996,36.133,34.180,23.926,109.863,0
1539620498.305,22.949,27.832,31.250,26.367,96.680,0
1539620498.309,26.367,30.273,33.203,29.297,90.332,0
1539620498.313,29.785,32.715,33.691,24.414,57.129,0
1539620498.317,24.902,22.949,33.691,23.926,75.684,0
1539620498.321,18.555,19.043,33.203,22.461,99.121,0
1539620498.325,17.090,33.203,36.621,26.855,25.879,0
1539620498.329,18.555,32.227,36.133,33.203,-13.672,0
1539620498.333,23.438,19.043,37.109,37.109,-1.953,0
1539620498.337,18.555,30.762,39.551,34.180,19.043,0
1539620498.341,16.602,38.574,39.062,34.180,93.262,0
1539620498.344,20.996,35.156,37.598,32.227,95.703,0
1539620498.348,22.461,39.551,35.645,34.180,30.273,0
1539620498.352,26.855,39.062,36.133,41.504,71.289,0
1539620498.356,25.879,36.133,34.668,31.738,100.098,0
1539620498.360,31.738,29.297,37.109,29.785,58.105,0
1539620498.364,30.762,16.602,39.551,30.273,33.691,0
1539620498.368,22.461,27.344,33.691,27.832,16.602,0
1539620498.372,28.809,47.852,36.133,36.621,-32.715,0
1539620498.376,31.738,50.781,40.527,40.527,3.906,0
1539620498.380,25.391,46.387,32.715,35.156,42.480,0
1539620498.383,22.461,47.363,30.762,30.273,34.180,0
1539620498.387,28.320,45.410,32.715,33.203,14.648,0
1539620498.391,31.250,41.992,32.715,30.273,30.273,0
1539620498.395,29.297,36.621,33.691,33.691,24.414,0
1539620498.399,30.762,40.039,30.762,36.133,11.719,0
1539620498.403,32.227,36.621,27.832,41.504,31.738,0
1539620498.407,37.109,17.578,33.203,50.781,49.805,0
1539620498.411,46.387,19.531,40.039,45.898,19.531,0
1539620498.415,55.664,43.945,38.574,48.828,-30.273,0
1539620498.419,50.781,49.805,34.668,51.758,32.715,0
1539620498.423,40.039,31.250,35.156,51.758,48.828,0
1539620498.426,45.898,34.668,33.691,55.664,68.848,0
1539620498.430,49.805,41.504,31.250,59.082,83.008,0
1539620498.434,52.734,35.645,31.250,64.453,63.477,0
1539620498.438,53.223,32.715,30.273,61.035,75.195,0
1539620498.442,54.688,33.691,36.133,62.988,67.871,0
1539620498.446,57.617,32.227,34.180,63.477,20.996,0
1539620498.450,59.082,28.320,26.855,58.594,-24.414,0
1539620498.454,59.570,17.578,28.320,62.500,-23.926,0
1539620498.458,58.594,14.648,28.320,64.941,50.781,0
1539620498.462,58.594,30.762,28.320,63.477,59.570,0
1539620498.466,61.523,33.691,28.320,67.871,36.621,0
1539620498.469,60.547,18.066,25.391,69.824,15.137,0
1539620498.473,58.594,26.367,25.391,65.918,23.438,0
1539620498.477,61.035,36.133,27.832,66.406,54.688,0
1539620498.481,60.547,25.879,23.926,65.918,-13.672,0
1539620498.485,59.082,34.668,25.391,66.406,-6.348,0
1539620498.489,63.477,40.039,29.297,69.336,5.859,0
1539620498.493,54.688,41.016,25.879,64.941,36.621,0
1539620498.497,47.852,38.086,25.391,65.918,93.262,0
1539620498.501,46.875,35.156,25.391,64.453,78.613,0
1539620498.505,44.434,39.551,22.949,57.617,45.898,0
1539620498.508,44.434,39.551,22.949,56.152,35.156,0
1539620498.512,47.852,32.227,22.461,56.641,53.223,0
1539620498.516,45.410,26.367,23.926,54.199,69.336,0
1539620498.520,33.691,38.574,26.855,50.781,80.566,0
1539620498.524,26.367,36.621,25.879,49.316,44.922,0
1539620498.528,24.414,28.809,26.367,44.434,12.207,0
1539620498.532,20.996,34.180,25.391,33.203,26.855,0
1539620498.536,20.508,34.668,27.344,33.203,33.691,0
1539620498.540,20.996,34.180,29.785,34.668,23.926,0
1539620498.544,22.949,35.156,30.762,32.715,18.555,0
1539620498.548,23.926,28.809,28.809,36.621,16.113,0
1539620498.551,18.555,34.668,28.320,38.574,-38.574,0
1539620498.555,22.949,37.598,29.785,37.109,20.020,0
1539620498.559,25.391,22.461,29.785,33.203,62.012,0
1539620498.563,17.090,35.156,32.227,33.203,48.828,0
1539620498.567,13.672,51.758,29.785,38.574,63.965,0
1539620498.571,15.137,39.062,24.902,33.691,24.414,0
1539620498.575,16.602,33.203,25.879,28.320,-40.527,0
1539620498.579,20.508,38.086,29.785,35.156,-10.254,0
1539620498.583,21.484,41.016,31.250,36.133,57.617,0
1539620498.587,23.438,33.203,28.809,35.645,60.547,0
1539620498.591,24.414,26.367,28.320,33.691,69.824,0
1539620498.594,24.902,30.762,30.762,31.738,31.250,0
1539620498.598,24.902,34.668,29.297,32.227,56.641,0
1539620498.602,20.996,26.367,31.250,33.691,45.410,0
1539620498.606,19.043,26.855,34.180,36.133,4.395,0
1539620498.610,18.555,42.480,29.297,31.250,31.738,0
1539620498.614,21.973,42.969,31.250,25.879,35.156,0
1539620498.618,23.438,36.133,37.109,27.344,48.828,0
1539620498.622,22.461,40.527,37.598,26.367,62.012,0
1539620498.626,23.438,44.922,35.645,26.855,32.715,0
1539620498.630,16.113,40.527,35.645,23.926,68.848,0
1539620498.633,11.230,36.621,34.668,19.531,77.637,0
1539620498.637,15.625,39.062,33.691,15.625,60.547,0
1539620498.641,14.160,31.738,35.645,12.695,48.340,0
1539620498.645,13.184,27.344,41.016,19.531,26.855,0
1539620498.649,16.113,30.273,43.457,19.043,27.344,0
1539620498.653,9.277,40.039,37.598,11.230,3.906,0
1539620498.657,6.348,55.664,36.133,11.719,4.395,0
1539620498.661,14.160,50.293,35.645,20.996,41.504,0
1539620498.665,16.113,41.992,35.156,27.832,56.152,0
1539620498.669,12.695,41.992,39.062,24.902,66.895,0
1539620498.673,16.113,41.504,41.992,25.391,66.406,0
1539620498.676,14.160,38.574,41.504,23.926,25.391,0
1539620498.680,8.301,39.062,43.945,17.578,-0.977,0
1539620498.684,13.184,44.922,44.434,20.020,-8.301,0
1539620498.688,13.184,43.457,45.410,17.090,-23.438,0
1539620498.692,0.000,37.109,46.387,8.789,0.488,0
1539620498.696,4.395,34.180,45.898,10.254,12.207,0
1539620498.700,10.742,48.828,45.410,9.766,13.184,0
1539620498.704,10.742,59.570,44.922,16.113,25.391,0
1539620498.708,16.602,49.805,39.062,20.508,49.805,0
1539620498.712,17.578,45.410,39.062,18.066,3.906,0
1539620498.716,18.555,58.594,44.434,22.461,-39.551,0
1539620498.719,20.020,59.082,42.480,23.926,9.277,0
1539620498.723,24.902,49.316,43.945,24.414,27.344,1
1539620498.727,29.785,52.734,41.992,23.926,33.691,0
1539620498.731,25.391,57.129,38.086,23.438,68.848,0
1539620498.735,22.949,44.434,39.062,31.250,39.062,0
1539620498.739,22.949,33.203,40.039,28.809,20.996,0
1539620498.743,25.391,32.715,41.992,28.320,35.156,0
1539620498.747,24.414,37.598,41.992,35.645,47.363,0
1539620498.751,21.973,41.016,36.133,35.156,14.160,0
1539620498.755,25.391,38.574,33.691,37.109,11.230,0
1539620498.758,30.273,40.039,39.062,34.180,-15.625,0
1539620498.762,31.738,44.922,41.992,33.203,31.250,0
1539620498.766,28.809,38.574,40.039,33.691,117.676,0
1539620498.770,30.762,31.250,36.133,32.227,88.867,0
1539620498.774,37.598,34.668,38.574,38.086,17.090,0
1539620498.778,36.133,37.598,42.969,36.621,-12.207,0
1539620498.782,34.668,30.273,43.457,37.109,6.836,0
1539620498.786,36.133,25.879,43.457,37.598,25.879,0
1539620498.790,30.762,37.598,37.598,33.203,47.363,0
1539620498.794,27.832,38.086,37.109,34.180,26.367,0
1539620498.798,30.762,34.180,41.504,33.691,23.926,0
1539620498.801,34.668,39.551,39.551,35.156,57.129,0
1539620498.805,32.715,41.504,36.621,33.203,72.754,0
1539620498.809,33.691,39.062,36.621,30.762,33.691,0
1539620498.813,32.715,34.668,38.086,31.250,-15.137,0
1539620498.817,28.320,38.574,39.551,33.691,42.480,0
1539620498.821,33.691,40.039,41.016,41.504,68.359,0
1539620498.825,34.180,28.320,40.039,37.598,83.008,0
1539620498.829,31.738,16.602,34.180,31.738,70.801,0
1539620498.833,30.273,22.461,35.156,31.738,97.168,0
1539620498.837,32.227,34.180,41.016,32.715,80.078,0
1539620498.841,32.227,37.598,40.527,34.668,16.602,0
1539620498.844,26.367,28.809,40.527,29.785,8.301,0
1539620498.848,25.391,32.227,37.109,25.391,39.062,0
1539620498.852,30.273,40.527,35.645,36.133,82.031,0
1539620498.856,31.738,34.668,39.551,40.039,39.062,0
1539620498.860,28.320,31.250,38.086,35.645,24.414,0
1539620498.864,25.879,33.691,38.086,34.180,47.363,0
1539620498.868,25.391,34.180,36.133,32.715,23.438,0
1539620498.872,22.949,30.762,36.621,29.785,-9.766,0
1539620498.876,21.484,29.297,37.109,27.832,-21.973,0
1539620498.880,23.438,36.621,36.621,28.809,8.301,0
1539620498.883,26.367,36.621,39.062,28.809,30.273,0
1539620498.887,28.320,28.320,39.062,29.785,35.645,0
1539620498.891,25.391,29.785,39.062,27.344,30.273,0
1539620498.895,25.879,48.340,37.598,25.879,29.785,0
1539620498.899,31.738,54.688,37.598,29.297,33.203,0
1539620498.903,30.273,43.945,37.109,28.809,13.672,0
1539620498.907,25.391,42.969,34.668,27.344,12.695,0
1539620498.911,25.391,45.898,35.156,27.832,41.016,0
1539620498.915,26.367,43.457,36.621,27.344,30.273,0
1539620498.919,23.438,40.039,35.645,26.855,30.762,0
1539620498.923,23.926,41.016,36.621,25.879,-3.906,0
1539620498.926,20.996,51.270,37.109,21.484,6.348,0
1539620498.930,12.207,52.246,39.551,15.137,0.977,0
1539620498.934,10.254,34.180,40.527,9.766,-48.340,0
1539620498.938,7.812,41.504,39.551,5.371,23.926,0
1539620498.942,3.906,55.176,40.039,1.953,35.156,0
1539620498.946,4.883,51.270,40.039,1.953,-5.371,0
1539620498.950,7.812,59.082,47.363,6.836,18.555,0
1539620498.954,-5.859,64.941,51.270,-4.883,52.734,0
1539620498.958,-21.973,66.406,50.293,-22.949,41.016,0
1539620498.962,-20.996,60.547,57.129,-24.414,-6.836,0
1539620498.966,-30.762,61.035,58.594,-31.250,17.578,0
1539620498.969,-37.109,66.406,60.547,-36.621,83.496,0
1539620498.973,-39.062,66.895,62.012,-46.875,83.008,0
1539620498.977,-49.316,58.105,58.594,-61.035,8.789,0
1539620498.981,-58.594,60.059,61.523,-70.312,-4.395,0
1539620498.985,-63.965,80.078,65.430,-77.637,16.113,0
1539620498.989,-79.590,82.520,67.871,-91.797,45.898,0
1539620498.993,-97.168,77.637,67.383,-108.887,43.945,0
1539620498.997,-107.422,86.914,67.871,-115.234,15.625,0
1539620499.001,-113.281,93.262,68.848,-122.070,56.152,0
1539620499.005,-120.605,89.355,69.336,-131.348,50.781,0
1539620499.008,-138.672,91.797,70.801,-151.855,36.133,0
1539620499.012,-151.855,98.633,70.312,-167.480,53.223,0
1539620499.016,-154.785,97.656,72.266,-172.852,4.883,0
1539620499.020,-163.574,103.516,73.242,-177.734,10.742,0
1539620499.024,-177.246,104.980,72.266,-187.988,72.266,0
1539620499.028,-181.641,103.516,71.289,-197.266,41.016,0
1539620499.032,-184.570,116.211,67.871,-195.801,39.062,0
1539620499.036,-188.477,111.816,67.383,-198.730,84.961,0
1539620499.040,-184.082,103.516,66.895,-198.242,75.684,0
1539620499.044,-172.852,107.422,64.453,-190.430,62.500,0
1539620499.048,-176.758,108.887,63.477,-193.359,81.055,0
1539620499.051,-184.570,99.609,64.453,-194.824,55.664,0
1539620499.055,-179.199,96.680,62.988,-190.430,52.246,0
1539620499.059,-176.270,96.680,56.641,-189.453,64.453,0
1539620499.063,-165.527,94.727,53.711,-183.594,9.766,0
1539620499.067,-152.832,89.355,55.176,-170.898,46.387,0
1539620499.071,-147.461,79.102,54.688,-167.969,48.340,0
1539620499.075,-140.625,81.543,47.363,-164.062,54.199,0
1539620499.079,-125.000,80.566,41.016,-145.020,76.660,0
1539620499.083,-106.934,74.707,40.039,-128.418,-8.301,0
1539620499.087,-88.867,76.172,35.156,-118.164,42.969,0
1539620499.091,-77.637,74.707,26.855,-103.516,69.824,0
1539620499.094,-65.918,69.824,28.809,-83.984,57.129,0
1539620499.098,-50.781,59.570,28.320,-64.941,22.461,0
1539620499.102,-30.762,54.199,22.461,-49.805,-30.273,0
1539620499.106,-16.113,53.711,20.020,-36.621,23.926,0
1539620499.110,0.488,41.504,17.578,-20.020,57.617,0
1539620499.114,18.066,26.367,18.555,-12.207,-32.715,0
1539620499.118,24.414,27.344,17.090,0.488,-16.113,0
1539620499.122,37.109,33.691,13.672,17.090,45.410,0
1539620499.126,48.340,23.438,15.625,20.508,-12.207,0
1539620499.130,52.246,16.602,15.137,31.738,37.109,0
1539620499.133,58.594,19.043,13.672,41.992,71.289,0
1539620499.137,71.777,17.090,15.625,52.246,30.273,0
1539620499.141,85.449,10.254,16.602,68.848,44.434,0
1539620499.145,87.402,2.441,14.648,72.754,34.180,0
1539620499.149,84.961,0.488,18.066,79.102,11.719,0
1539620499.153,93.750,0.488,21.484,86.914,34.668,0
1539620499.157,100.586,-12.207,21.484,92.285,68.359,0
1539620499.161,104.004,-21.484,20.020,101.562,41.504,0
1539620499.165,111.816,-10.254,14.160,103.516,34.180,0
1539620499.169,126.953,-6.836,13.672,109.375,55.176,0
1539620499.173,131.836,-14.648,18.555,111.816,63.477,0
1539620499.176,119.141,-15.625,19.043,113.281,17.578,0
1539620499.180,123.535,-5.859,15.137,109.863,26.367,0
1539620499.184,132.324,-3.418,17.090,110.840,10.742,0
1539620499.188,132.812,-2.930,19.043,117.188,32.227,0
1539620499.192,129.395,-6.836,18.555,119.629,83.496,0
1539620499.196,122.070,-12.207,23.926,122.070,25.879,0
1539620499.200,123.535,-1.465,25.879,124.023,-14.160,0
1539620499.204,128.906,-7.324,24.902,123.535,-16.113,0
1539620499.208,127.441,-3.418,27.344,122.070,31.738,0
1539620499.212,126.465,10.254,25.391,117.676,51.758,0
1539620499.216,126.465,4.883,22.949,112.305,24.414,0
1539620499.219,117.676,2.930,24.414,115.723,16.602,0
1539620499.223,117.188,13.184,23.926,118.652,38.574,0
1539620499.227,122.070,16.602,22.949,117.676,59.570,0
1539620499.231,117.676,8.301,22.949,113.770,64.453,0
1539620499.235,121.582,9.277,23.438,110.840,8.789,0
1539620499.239,117.676,15.137,22.461,109.375,-3.906,0
1539620499.243,115.234,11.719,22.949,110.352,22.461,0
1539620499.247,122.559,7.324,23.926,109.863,12.207,0
1539620499.251,116.211,3.418,20.020,98.633,16.602,0
1539620499.255,109.863,4.395,19.531,90.820,-19.043,0
1539620499.258,108.887,13.672,23.438,94.238,-48.828,0
1539620499.262,108.887,-0.977,23.438,91.309,33.691,0
1539620499.266,97.656,-9.766,24.902,83.984,80.566,0
1539620499.270,91.797,13.184,30.762,85.938,71.289,0
1539620499.274,95.703,15.137,32.715,89.355,34.180,0
1539620499.278,95.215,14.160,30.762,86.914,23.438,0
1539620499.282,96.191,15.137,32.227,86.914,10.742,0
1539620499.286,90.820,17.578,32.227,79.102,4.395,0
1539620499.290,81.543,15.625,33.691,79.590,45.898,0
1539620499.294,79.590,13.672,29.785,83.984,35.645,0
1539620499.298,96.191,23.438,28.809,79.590,10.742,0
1539620499.301,93.262,21.484,36.621,73.242,-7.324,0
1539620499.305,78.613,22.949,37.109,73.730,11.719,0
1539620499.309,86.914,19.043,35.156,74.219,41.016,0
1539620499.313,91.309,20.508,33.203,68.848,30.762,0
1539620499.317,84.473,31.738,30.762,67.871,20.508,0
1539620499.321,80.078,23.926,32.715,70.801,-12.207,0
1539620499.325,82.031,21.484,37.109,71.777,-10.254,0
1539620499.329,77.148,28.320,36.133,66.895,16.602,0
1539620499.333,75.684,31.738,35.156,71.777,37.598,0
1539620499.337,86.426,27.832,36.621,77.148,43.457,0
1539620499.341,82.520,20.508,33.691,70.312,-16.113,0
1539620499.344,69.336,25.391,30.273,64.453,-30.762,0
1539620499.348,67.383,23.926,34.180,63.965,32.227,0
1539620499.352,72.754,12.695,38.086,62.500,55.664,0
1539620499.356,69.336,16.113,36.621,55.664,15.137,0
1539620499.360,59.570,30.273,35.156,53.223,-10.742,0
1539620499.364,59.082,34.180,35.156,57.617,54.199,0
1539620499.368,62.012,27.832,32.715,56.641,69.336,0
1539620499.372,56.641,30.273,30.762,49.316,18.555,0
1539620499.376,51.270,32.227,35.156,58.105,12.695,0
1539620499.380,56.641,26.367,36.133,57.129,45.898,0
1539620499.383,54.199,26.367,31.738,48.828,35.156,0
1539620499.387,51.758,29.297,35.645,56.641,-9.766,0
1539620499.391,53.223,28.809,40.039,61.523,-12.695,0
1539620499.395,50.781,29.785,32.227,51.270,21.484,0
1539620499.399,45.410,23.926,26.855,37.598,52.246,0
1539620499.403,42.969,24.414,31.250,39.062,71.289,0
1539620499.407,42.480,39.551,29.785,41.016,59.570,0
1539620499.411,46.387,37.598,27.832,38.086,3.906,0
1539620499.415,40.527,33.203,30.762,43.457,5.371,0
1539620499.419,33.203,39.062,31.250,45.898,85.938,0
1539620499.423,36.621,39.062,28.320,42.480,64.941,0
1539620499.426,40.527,34.180,26.855,42.480,-3.418,0
1539620499.430,30.273,34.668,27.832,41.016,38.086,0
1539620499.434,25.391,32.715,27.832,34.668,38.574,0
1539620499.438,41.992,27.832,28.809,44.434,24.902,0
1539620499.442,42.480,25.391,28.320,44.922,-8.789,0
1539620499.446,26.367,18.555,28.320,28.320,3.906,0
1539620499.450,20.996,25.879,34.668,29.297,59.570,0
1539620499.454,17.090,33.691,36.133,28.320,6.348,0
1539620499.458,14.160,31.738,35.156,25.391,-25.391,0
1539620499.462,18.555,32.715,36.133,23.926,-2.930,0
1539620499.466,21.484,29.785,32.715,24.414,1.465,0
1539620499.469,23.926,32.715,29.785,29.785,19.531,0
1539620499.473,22.949,31.738,28.320,27.832,57.617,0
1539620499.477,21.484,36.133,29.785,28.809,62.012,0
1539620499.481,26.367,45.410,33.203,33.691,114.258,0
1539620499.485,26.367,36.621,35.156,35.156,83.008,0
1539620499.489,25.879,24.414,36.133,31.250,-23.926,0
1539620499.493,28.809,31.738,38.574,32.715,-28.809,0
1539620499.497,26.855,43.945,35.156,29.297,-12.695,0
1539620499.501,26.367,44.922,33.203,28.809,13.184,0
1539620499.505,27.344,32.715,35.645,34.668,8.789,0
1539620499.508,29.785,29.297,34.668,35.645,-24.414,0
1539620499.512,36.133,45.410,35.645,34.180,12.695,0
1539620499.516,29.785,44.434,38.086,36.621,61.035,0
1539620499.520,25.879,41.992,37.109,37.109,71.289,0
1539620499.524,32.715,43.945,36.133,37.109,59.082,0
1539620499.528,32.227,42.969,35.645,39.062,55.176,0
1539620499.532,34.180,31.250,35.156,36.621,33.691,0
1539620499.536,36.133,25.391,36.621,37.109,53.711,0
1539620499.540,27.344,40.527,36.621,39.062,35.156,0
1539620499.544,24.902,47.852,36.133,38.574,45.410,0
1539620499.548,23.926,41.992,36.133,34.180,62.500,0
1539620499.551,21.484,39.062,38.086,34.668,37.598,0
1539620499.555,27.344,43.945,38.574,37.598,46.875,0
1539620499.559,29.785,46.387,35.645,34.180,63.965,0
1539620499.563,27.344,41.504,34.180,29.297,25.879,0
1539620499.567,27.832,41.016,34.180,35.156,38.086,0
1539620499.571,27.344,41.504,34.668,38.086,58.594,0
1539620499.575,26.367,34.180,36.133,34.668,0.488,0
1539620499.579,24.902,21.973,38.086,36.621,-2.441,0
1539620499.583,26.855,23.926,37.598,39.551,17.090,0
1539620499.587,28.809,40.039,32.715,35.156,37.109,0
1539620499.591,30.273,47.363,28.809,39.551,60.547,0
1539620499.594,33.203,39.062,32.227,43.457,101.562,0
1539620499.598,33.691,35.156,36.133,37.598,8.789,0
1539620499.602,26.855,44.434,35.156,33.691,-31.738,0
1539620499.606,26.855,45.898,33.691,31.250,51.758,0
1539620499.610,33.691,43.457,36.621,33.203,92.773,0
1539620499.614,28.320,43.457,37.598,37.109,83.008,0
1539620499.618,22.461,40.527,33.691,33.203,77.148,0
1539620499.622,28.320,35.156,36.621,31.738,71.289,0
1539620499.626,28.320,29.785,39.551,36.133,15.625,0
1539620499.630,19.531,34.180,36.621,31.738,28.809,0
1539620499.633,17.090,42.969,33.203,31.250,63.477,0
1539620499.637,19.531,34.180,32.227,35.156,8.301,0
1539620499.641,22.461,27.344,33.203,30.762,-12.695,0
1539620499.645,21.973,40.039,29.785,27.832,16.113,0
1539620499.649,25.879,46.875,30.762,31.738,14.648,0
1539620499.653,29.785,42.480,31.738,27.832,13.184,0
1539620499.657,30.762,33.203,29.785,22.949,10.742,0
1539620499.661,33.203,33.203,30.273,27.344,-7.812,0
1539620499.665,33.203,41.504,31.738,30.762,34.180,0
1539620499.669,33.691,41.504,32.715,31.250,52.246,0
1539620499.673,29.785,34.668,28.809,27.344,39.551,0
1539620499.676,36.133,32.227,26.367,31.250,38.574,0
1539620499.680,45.898,40.039,27.344,35.645,19.043,0
1539620499.684,36.133,33.203,28.320,29.297,5.859,0
1539620499.688,34.668,35.645,29.785,25.391,55.664,0
1539620499.692,35.156,49.316,31.738,25.391,30.273,0
1539620499.696,26.855,42.480,33.691,26.855,9.277,0
1539620499.700,27.344,41.992,34.668,27.344,70.312,0
1539620499.704,28.320,47.363,31.738,28.320,96.191,0
1539620499.708,25.879,43.457,33.203,31.250,80.078,0
1539620499.712,26.367,35.645,34.180,29.297,45.410,0
1539620499.716,24.902,38.574,33.203,29.785,43.457,0
1539620499.719,24.902,36.133,32.227,33.203,11.719,0
1539620499.723,20.996,33.691,30.762,29.785,-27.344,0
1539620499.727,22.949,37.598,35.156,30.762,-2.441,0
1539620499.731,27.832,34.668,37.109,28.320,27.832,0
1539620499.735,25.391,43.457,36.621,21.973,18.555,0
1539620499.739,29.297,36.621,38.086,29.785,40.527,0
1539620499.743,30.762,30.273,40.039,39.062,77.148,0
1539620499.747,28.809,38.086,39.551,40.527,41.992,0
1539620499.751,19.531,43.457,29.785,18.555,-13.184,0
1539620499.755,12.695,40.039,25.391,7.324,-22.949,0
1539620499.758,23.438,42.969,28.809,23.438,51.270,0
1539620499.762,28.809,44.434,28.320,24.414,78.613,0
1539620499.766,23.926,36.133,29.297,23.926,22.949,0
1539620499.770,21.484,37.109,31.738,29.297,46.875,0
1539620499.774,24.414,27.832,27.832,25.391,54.688,0
1539620499.778,21.484,30.273,26.855,25.391,-8.301,0
1539620499.782,20.996,42.969,29.785,27.344,14.648,0
1539620499.786,24.414,34.668,30.273,23.926,47.363,0
1539620499.790,22.949,29.297,34.668,18.555,27.832,0
1539620499.794,19.043,33.203,35.645,16.602,-30.273,0
1539620499.798,19.531,35.645,34.180,22.949,-10.254,0
1539620499.801,25.879,28.320,35.645,27.344,67.383,0
1539620499.805,26.855,25.879,34.668,28.320,26.855,0
1539620499.809,27.344,35.645,36.133,30.273,55.664,0
1539620499.813,33.691,35.156,40.039,34.180,75.195,0
1539620499.817,43.457,27.832,39.062,33.203,12.695,0
1539620499.821,39.062,27.344,33.691,29.297,-31.250,0
1539620499.825,31.738,44.922,35.156,32.227,-6.836,0
1539620499.829,37.109,51.270,40.039,34.180,42.480,0
1539620499.833,42.480,43.457,39.062,36.621,47.363,0
1539620499.837,40.039,37.598,36.133,35.645,49.316,0
1539620499.841,35.645,43.945,38.086,32.227,62.012,0
1539620499.844,33.691,48.340,41.016,33.691,71.289,0
1539620499.848,27.832,41.992,40.527,28.809,50.781,0
1539620499.852,27.344,42.480,38.574,24.414,24.414,0
1539620499.856,31.250,46.875,37.109,32.227,42.480,0
1539620499.860,27.344,39.062,36.133,31.738,36.621,0
1539620499.864,26.855,26.367,34.668,30.273,52.734,0
1539620499.868,31.250,26.855,35.156,29.785,104.004,0
1539620499.872,26.855,36.621,33.691,21.973,39.551,0
1539620499.876,24.902,39.551,34.180,22.949,85.938,0
1539620499.880,29.297,38.574,36.133,26.855,138.672,0
1539620499.883,31.250,41.016,35.645,27.832,63.965,0
1539620499.887,31.738,43.457,35.645,32.227,86.914,0
1539620499.891,29.785,40.039,38.086,32.715,111.816,0
1539620499.895,25.879,33.691,36.621,32.227,52.734,0
1539620499.899,24.902,37.598,32.227,34.668,32.227,0
1539620499.903,29.297,42.969,32.715,33.691,26.855,0
1539620499.907,30.273,35.645,33.203,33.691,33.691,0
1539620499.911,31.250,28.320,33.203,38.574,33.691,0
1539620499.915,34.180,42.480,30.762,39.551,50.781,0
1539620499.919,36.133,49.805,31.250,37.598,81.055,0
1539620499.923,40.527,36.133,37.109,38.574,70.801,0
1539620499.926,40.039,28.809,37.109,36.621,43.457,0
1539620499.930,39.062,41.504,34.180,36.621,35.645,0
1539620499.934,36.621,45.410,35.156,35.156,8.789,0
1539620499.938,30.762,38.086,35.156,32.227,14.160,0
1539620499.942,31.250,39.551,31.250,33.691,40.039,0
1539620499.946,32.227,42.480,32.715,32.715,8.301,0
1539620499.950,29.297,40.527,35.156,27.832,26.855,0
1539620499.954,30.762,34.668,33.691,24.902,39.551,0
1539620499.958,27.344,34.668,29.785,25.391,58.594,0
1539620499.962,23.438,39.062,26.367,27.344,25.391,0
1539620499.966,27.832,43.457,27.344,22.949,33.691,0
1539620499.969,35.156,30.762,29.297,24.902,3.418,0
1539620499.973,35.645,31.738,34.668,30.273,-42.480,0
1539620499.977,32.715,44.434,35.645,31.250,-7.812,0
1539620499.981,31.738,41.504,32.227,31.738,-2.930,0
1539620499.985,30.762,35.645,32.715,33.691,-15.625,0
1539620499.989,38.574,37.598,34.668,34.180,15.137,0
1539620499.993,37.598,43.945,34.180,33.203,-24.902,0
1539620499.997,23.926,39.551,35.645,34.668,-24.902,0
1539620500.001,25.879,34.180,37.598,34.180,49.805,1
1539620500.005,27.344,36.133,36.621,23.438,77.148,0
1539620500.008,28.320,42.480,36.621,23.438,51.758,0
1539620500.012,28.809,26.855,38.086,25.391,7.812,0
1539620500.016,27.344,22.461,38.086,24.902,-11.230,0
1539620500.020,26.367,41.016,35.156,26.855,-6.348,0
1539620500.024,27.832,42.480,36.133,27.344,69.824,0
1539620500.028,30.273,28.320,38.574,29.785,65.918,0
1539620500.032,29.297,25.391,38.574,28.809,55.664,0
1539620500.036,28.809,40.527,39.062,28.320,77.637,0
1539620500.040,27.344,37.598,37.598,27.832,31.738,0
1539620500.044,29.297,34.668,39.062,29.297,52.734,0
1539620500.048,27.832,30.273,37.598,28.809,61.035,0
1539620500.051,29.297,30.762,36.133,35.645,34.180,0
1539620500.055,29.297,39.551,37.109,36.621,78.613,0
1539620500.059,27.344,22.461,37.109,23.926,63.477,0
1539620500.063,30.273,19.531,39.062,24.414,15.625,0
1539620500.067,25.879,38.574,35.156,32.227,60.547,0
1539620500.071,26.855,32.715,35.156,31.738,67.871,0
1539620500.075,31.250,29.785,36.133,27.344,21.973,0
1539620500.079,25.879,32.715,33.203,27.832,57.129,0
1539620500.083,23.438,27.344,34.668,31.250,58.594,0
1539620500.087,26.855,25.391,38.574,33.203,14.648,0
1539620500.091,27.832,28.320,38.574,32.715,7.812,0
1539620500.094,31.250,18.555,38.574,38.574,28.320,0
1539620500.098,33.691,16.113,36.621,42.969,41.504,0
1539620500.102,31.738,28.809,33.203,36.621,49.316,0
1539620500.106,28.320,26.855,35.156,33.203,23.926,0
1539620500.110,28.809,41.504,36.133,36.621,50.293,0
1539620500.114,26.855,51.758,35.156,35.156,45.898,0
1539620500.118,24.414,43.945,36.133,31.250,38.086,0
1539620500.122,30.273,40.527,39.062,32.227,42.480,0
1539620500.126,30.273,44.922,35.645,27.344,27.832,0
1539620500.130,28.320,46.387,31.250,25.879,77.148,0
1539620500.133,27.344,41.992,35.156,30.273,75.684,0
1539620500.137,25.391,41.992,38.086,30.762,11.719,0
1539620500.141,25.391,41.504,36.133,25.391,-12.695,0
1539620500.145,29.297,44.434,37.598,26.855,36.621,0
1539620500.149,31.738,37.109,38.574,33.691,90.820,0
1539620500.153,31.738,34.668,38.086,33.691,60.547,0
1539620500.157,30.762,48.828,39.062,36.133,44.922,0
1539620500.161,32.715,42.480,37.109,43.945,30.273,0
1539620500.165,34.668,40.039,36.621,50.293,22.949,0
1539620500.169,35.156,45.898,36.133,48.828,58.105,0
1539620500.173,39.551,48.340,32.227,44.922,20.020,0
1539620500.176,40.039,39.062,32.715,42.969,37.598,0
1539620500.180,36.621,28.809,38.086,41.016,71.289,0
1539620500.184,41.504,37.598,38.574,39.551,41.504,0
1539620500.188,40.039,44.922,34.180,36.621,7.812,0
1539620500.192,35.156,38.574,36.621,38.574,64.453,0
1539620500.196,39.551,34.180,38.086,38.086,85.449,0
1539620500.200,37.598,45.410,34.668,34.668,12.207,0
1539620500.204,31.250,47.363,32.715,33.203,26.855,0
1539620500.208,29.785,39.551,32.715,34.180,40.527,0
1539620500.212,32.715,42.480,33.691,39.551,20.996,0
1539620500.216,36.621,49.805,31.738,39.062,38.086,0
1539620500.219,38.574,48.340,29.297,37.109,37.598,0
1539620500.223,39.062,46.387,31.738,37.109,11.719,0
1539620500.227,40.039,49.316,35.156,39.551,30.273,0
1539620500.231,36.133,48.340,35.156,44.434,12.207,0
1539620500.235,37.109,43.945,35.645,44.434,-18.066,0
1539620500.239,42.480,38.574,39.551,41.504,26.367,0
1539620500.243,34.668,41.016,39.551,38.086,73.730,0
1539620500.247,29.785,51.758,36.621,38.574,24.414,0
1539620500.251,32.715,50.781,37.109,41.016,-29.297,0
1539620500.255,34.668,39.062,37.598,40.527,30.762,0
1539620500.258,38.086,36.133,34.668,45.410,56.641,0
1539620500.262,39.062,42.480,34.180,50.293,6.836,0
1539620500.266,40.039,41.504,34.180,48.340,34.668,0
1539620500.270,38.086,40.039,36.621,44.922,77.637,0
1539620500.274,36.621,41.504,38.574,43.457,81.055,0
1539620500.278,40.527,39.551,37.598,46.387,5.371,0
1539620500.282,36.133,27.832,40.039,42.969,-36.621,0
1539620500.286,35.156,21.973,41.504,38.086,-6.348,0
1539620500.290,36.133,38.574,40.039,37.109,47.852,0
1539620500.294,36.133,44.434,36.621,37.109,83.496,0
1539620500.298,37.109,32.227,38.086,40.039,34.668,0
1539620500.301,35.156,29.297,41.504,35.156,7.324,0
1539620500.305,35.156,36.621,41.016,31.738,-6.348,0
1539620500.309,39.551,36.133,41.992,41.504,18.066,0
1539620500.313,38.086,28.320,39.551,41.992,27.832,0
1539620500.317,31.738,29.297,39.062,36.133,27.344,0
1539620500.321,27.832,30.273,48.340,39.551,28.320,0
1539620500.325,25.391,26.855,48.340,39.062,23.438,0
1539620500.329,26.855,23.926,41.992,32.227,29.785,0
1539620500.333,22.949,24.414,41.992,30.762,61.523,0
1539620500.337,23.926,33.203,43.457,30.273,58.594,0
1539620500.341,29.785,40.527,42.480,32.715,24.902,0
1539620500.344,31.738,29.785,41.504,30.273,54.688,0
1539620500.348,31.738,33.691,40.039,29.297,76.660,0
1539620500.352,26.855,47.363,37.109,28.809,26.855,0
1539620500.356,25.391,43.457,37.598,30.762,47.852,0
1539620500.360,27.832,33.691,40.039,41.016,57.129,0
1539620500.364,28.809,37.109,36.621,43.457,17.090,0
1539620500.368,23.438,42.480,34.668,40.039,1.953,0
1539620500.372,21.973,35.645,35.156,40.527,0.488,0
1539620500.376,27.344,30.762,37.598,41.992,27.832,0
1539620500.380,28.809,37.109,39.551,39.062,51.270,0
1539620500.383,28.320,43.457,36.621,41.016,48.340,0
1539620500.387,31.738,22.949,34.668,41.016,6.836,0
1539620500.391,31.738,13.184,35.645,37.109,5.371,0
1539620500.395,29.297,34.180,37.598,36.621,4.395,0
1539620500.399,31.250,36.621,38.086,37.109,14.648,0
1539620500.403,36.621,34.668,33.691,36.621,65.918,0
1539620500.407,32.715,33.691,31.250,36.133,48.828,0
1539620500.411,29.297,35.156,35.156,35.156,77.637,0
1539620500.415,32.227,32.715,39.062,42.480,50.781,0
1539620500.419,32.227,27.344,38.574,48.340,67.871,0
1539620500.423,30.762,24.902,33.691,40.527,109.375,0
1539620500.426,29.785,23.438,32.715,39.062,42.480,0
1539620500.430,31.250,26.367,36.133,43.457,-1.953,0
1539620500.434,28.809,23.926,37.109,43.457,-22.949,0
1539620500.438,29.297,29.297,34.180,41.504,-11.230,0
1539620500.442,33.691,38.574,36.621,44.922,9.277,0
1539620500.446,33.691,36.621,39.551,43.457,46.387,0
1539620500.450,31.250,29.297,36.133,35.156,84.473,0
1539620500.454,29.297,33.203,37.598,38.574,37.109,0
1539620500.458,29.785,41.016,39.062,42.969,14.648,0
1539620500.462,32.227,36.133,36.621,39.551,-17.090,0
1539620500.466,31.738,31.738,37.598,41.016,13.184,0
1539620500.469,31.738,29.297,37.109,37.598,62.988,0
1539620500.473,29.785,34.668,34.180,33.691,15.625,0
1539620500.477,32.227,37.109,32.227,37.598,-11.719,0
1539620500.481,34.180,35.645,31.250,32.227,40.039,0
1539620500.485,28.809,48.340,31.738,26.367,82.520,0
1539620500.489,26.855,53.223,30.762,28.320,64.453,0
1539620500.493,24.414,42.480,30.762,30.762,86.914,0
1539620500.497,20.508,40.527,33.691,32.227,117.676,0
1539620500.501,20.996,44.922,33.203,31.250,63.477,0
1539620500.505,22.461,41.504,35.645,36.133,10.742,0
1539620500.508,27.344,37.598,39.062,41.992,0.488,0
1539620500.512,28.809,46.875,38.086,35.645,11.230,0
1539620500.516,21.973,52.246,33.691,23.926,37.109,0
1539620500.520,22.461,51.758,28.320,24.414,28.809,0
1539620500.524,25.391,43.457,28.320,23.926,9.277,0
1539620500.528,20.996,46.875,27.832,14.648,42.480,0
1539620500.532,21.973,64.453,28.809,13.672,74.707,0
1539620500.536,25.391,60.059,27.832,17.578,53.223,0
1539620500.540,24.414,52.734,27.832,17.090,21.484,0
1539620500.544,24.902,51.758,33.691,14.648,-9.766,0
1539620500.548,24.902,51.758,31.738,12.695,-19.531,0
1539620500.551,21.973,42.969,27.344,15.137,-15.625,0
1539620500.555,21.973,40.039,27.832,20.508,31.738,0
1539620500.559,19.531,44.434,28.320,18.066,31.738,0
1539620500.563,15.137,39.551,29.297,18.555,20.020,0
1539620500.567,16.113,34.668,29.785,20.996,24.414,0
1539620500.571,17.090,33.203,31.738,18.555,17.090,0
1539620500.575,10.742,32.715,34.668,20.020,-9.766,0
1539620500.579,11.719,37.109,31.738,17.578,-22.461,0
1539620500.583,16.602,35.156,30.762,13.184,20.996,0
1539620500.587,17.090,36.621,34.668,15.625,37.109,0
1539620500.591,19.043,49.316,34.180,20.996,-25.879,0
1539620500.594,20.020,44.922,33.203,21.973,-64.453,0
1539620500.598,20.996,41.504,35.156,21.973,15.625,0
1539620500.602,22.949,42.480,34.668,21.484,17.578,0
1539620500.606,23.926,42.480,32.715,22.949,1.465,0
1539620500.610,24.414,39.062,34.668,24.414,51.270,0
1539620500.614,20.508,31.738,37.109,22.461,39.062,0
1539620500.618,20.508,40.039,35.645,27.832,25.879,0
1539620500.622,20.508,52.734,31.738,31.250,40.527,0
1539620500.626,17.090,45.410,32.227,30.273,46.387,0
1539620500.630,18.555,42.480,31.738,34.180,52.246,0
1539620500.633,20.508,48.828,30.273,33.691,85.938,0
1539620500.637,20.508,48.340,33.203,31.738,78.613,0
1539620500.641,23.926,38.086,35.156,30.762,66.895,0
1539620500.645,27.832,36.133,32.715,38.574,60.547,0
1539620500.649,28.320,42.969,33.691,39.062,22.949,0
1539620500.653,27.344,42.969,35.156,37.109,-0.488,0
1539620500.657,26.855,38.086,33.691,41.992,43.945,0
1539620500.661,27.344,32.715,32.715,37.109,17.578,0
1539620500.665,25.391,35.645,28.809,30.273,-21.484,0
1539620500.669,28.809,48.340,28.320,38.574,52.734,0
1539620500.673,30.762,49.805,33.691,39.062,83.984,0
1539620500.676,28.809,49.316,34.668,34.180,32.715,0
1539620500.680,26.367,49.316,31.738,35.645,29.785,0
1539620500.684,28.320,40.039,29.785,37.598,5.371,0
1539620500.688,34.180,43.457,31.738,38.574,10.742,0
1539620500.692,30.273,47.852,32.227,37.598,46.387,0
1539620500.696,31.250,50.293,31.250,38.086,25.391,0
1539620500.700,35.645,49.805,29.785,40.527,17.578,0
1539620500.704,34.180,43.457,32.227,42.480,47.852,0
1539620500.708,36.621,41.992,32.715,43.457,66.895,0
1539620500.712,33.691,43.945,29.785,41.016,36.133,0
1539620500.716,32.715,43.945,33.203,41.504,22.949,0
1539620500.719,39.551,31.738,37.598,46.875,31.738,0
1539620500.723,37.598,35.156,34.668,47.852,20.508,0
1539620500.727,33.203,47.852,34.180,51.270,35.645,0
1539620500.731,38.086,35.645,37.109,49.316,71.289,0
1539620500.735,41.504,24.902,36.133,41.016,37.109,0
1539620500.739,35.645,27.832,34.668,40.527,36.133,0
1539620500.743,36.621,24.414,35.156,45.410,64.453,0
1539620500.747,37.109,15.137,35.645,41.504,-19.043,0
1539620500.751,40.039,18.555,33.203,41.992,-85.449,0
1539620500.755,41.016,33.203,31.738,46.875,7.324,0
1539620500.758,32.227,41.992,33.203,42.969,104.004,0
1539620500.762,35.156,30.762,36.621,43.945,55.664,0
1539620500.766,37.109,21.973,40.527,43.945,47.363,0
1539620500.770,34.668,34.668,38.574,44.434,22.461,0
1539620500.774,34.180,42.969,36.133,44.922,3.418,0
1539620500.778,37.109,40.527,37.109,45.898,53.223,0
1539620500.782,39.062,37.598,37.598,43.945,33.203,0
1539620500.786,37.109,41.504,38.086,39.062,15.625,0
1539620500.790,36.133,41.504,37.109,40.039,54.199,0
1539620500.794,41.016,38.086,34.668,43.457,70.801,0
1539620500.798,40.527,35.156,36.621,41.992,0.977,0
1539620500.801,37.109,36.133,37.109,40.527,-28.809,0
1539620500.805,41.992,36.621,35.156,42.969,-4.883,0
1539620500.809,43.457,33.203,37.109,37.109,8.301,0
1539620500.813,38.086,38.574,40.039,34.668,42.480,0
1539620500.817,36.621,43.945,40.039,38.086,57.617,0
1539620500.821,37.598,44.434,41.016,41.992,39.551,0
1539620500.825,36.621,45.410,40.039,41.016,6.348,0
1539620500.829,36.621,49.316,36.621,40.039,20.020,0
1539620500.833,40.039,57.617,38.086,48.340,114.746,0
1539620500.837,37.598,51.270,40.527,50.293,86.426,0
1539620500.841,39.062,42.969,39.062,45.898,13.184,0
1539620500.844,39.062,46.387,37.598,44.434,85.938,0
1539620500.848,34.668,45.898,36.621,44.434,77.637,0
1539620500.852,32.715,41.992,40.527,42.969,39.062,0
1539620500.856,32.227,33.691,42.480,39.551,38.574,0
1539620500.860,30.762,42.969,40.039,42.969,4.395,0
1539620500.864,29.297,47.852,40.039,43.457,23.926,0
1539620500.868,34.668,39.551,43.457,44.434,31.738,0
1539620500.872,39.062,40.039,41.992,46.875,34.668,0
1539620500.876,36.133,43.457,39.062,42.480,-2.930,0
1539620500.880,35.156,43.457,38.574,40.527,-30.273,0
1539620500.883,34.668,41.504,37.109,41.992,35.156,0
1539620500.887,39.062,37.598,38.086,42.969,40.527,0
1539620500.891,40.527,33.691,38.086,39.062,47.852,0
1539620500.895,38.086,36.621,37.109,40.039,16.113,0
1539620500.899,37.109,33.203,36.621,41.992,-43.457,0
1539620500.903,33.203,36.133,33.203,34.180,-1.465,0
1539620500.907,40.039,44.922,30.762,38.086,1.465,0
1539620500.911,47.363,47.363,31.738,47.363,13.184,0
1539620500.915,32.227,46.875,34.180,41.992,30.762,0
1539620500.919,20.020,49.316,37.109,40.039,32.227,0
1539620500.923,20.508,43.457,41.016,40.039,27.344,0
1539620500.926,20.020,36.133,43.945,31.250,32.227,0
1539620500.930,22.461,35.645,42.969,24.902,31.738,0
1539620500.934,23.438,34.668,40.527,29.297,0.977,0
1539620500.938,25.391,33.203,39.551,35.645,0.488,0
1539620500.942,26.855,27.832,34.668,32.227,8.301,0
1539620500.946,30.762,24.902,33.691,31.250,8.301,0
1539620500.950,33.691,40.039,32.715,31.250,35.645,0
1539620500.954,32.227,47.363,31.738,30.273,85.449,0
1539620500.958,33.203,35.156,31.738,35.156,49.805,0
1539620500.962,34.668,35.645,28.809,34.668,24.902,0
1539620500.966,31.250,41.016,30.762,34.180,58.105,0
1539620500.969,27.832,36.621,33.691,36.621,118.652,0
1539620500.973,30.273,28.809,33.203,39.062,114.746,0
1539620500.977,33.691,26.367,33.203,40.039,38.574,0
1539620500.981,31.738,30.273,34.180,39.062,43.457,0
1539620500.985,30.762,28.320,33.203,43.457,52.246,0
1539620500.989,35.156,20.996,34.668,44.434,87.891,0
1539620500.993,36.133,24.414,36.133,39.551,97.656,0
1539620500.997,33.203,32.227,34.668,40.527,6.836,0
1539620501.001,33.691,30.273,35.645,46.875,51.270,0
1539620501.005,34.180,18.555,34.668,44.434,52.734,0
1539620501.008,34.668,20.020,35.645,41.016,-8.789,0
1539620501.012,34.180,31.250,37.109,43.945,-23.438,0
1539620501.016,31.250,26.855,36.133,36.621,-20.508,0
1539620501.020,28.809,27.344,34.180,37.598,-19.043,0
1539620501.024,30.273,30.273,32.227,41.016,10.742,0
1539620501.028,30.762,30.273,31.250,38.574,49.316,0
1539620501.032,31.250,22.949,31.250,41.504,53.223,0
1539620501.036,35.645,23.926,32.227,41.504,23.926,0
1539620501.040,33.203,39.551,31.738,36.133,18.555,0
1539620501.044,29.785,42.480,31.738,36.133,23.438,0
1539620501.048,34.668,36.133,33.691,35.645,7.812,0
1539620501.051,36.133,37.109,36.621,36.133,-1.465,0
1539620501.055,34.180,43.945,33.691,36.133,3.418,0
1539620501.059,35.645,43.945,31.250,36.133,48.828,0
1539620501.063,37.109,33.203,33.203,41.016,88.379,0
1539620501.067,40.039,25.879,34.668,41.016,32.715,0
1539620501.071,38.574,34.668,36.133,40.527,21.973,0
1539620501.075,40.527,38.574,39.062,45.410,81.543,0
1539620501.079,41.016,22.461,38.574,44.434,16.602,0
1539620501.083,35.645,23.438,35.645,39.062,23.926,0
1539620501.087,32.227,37.109,36.133,35.645,52.734,0
1539620501.091,36.621,35.645,35.645,39.551,19.531,0
1539620501.094,36.621,36.133,32.715,33.203,30.273,0
1539620501.098,28.809,37.109,31.250,26.855,-20.508,0
1539620501.102,26.855,34.668,31.250,30.762,-57.617,0
1539620501.106,30.273,24.414,34.668,33.691,-6.836,0
1539620501.110,30.273,29.785,33.691,30.762,23.926,0
1539620501.114,25.879,41.016,28.809,27.832,60.547,0
1539620501.118,23.438,39.551,31.738,33.203,78.613,0
1539620501.122,28.809,36.133,37.109,38.574,63.477,0
1539620501.126,31.250,33.691,37.109,35.645,83.496,0
1539620501.130,23.438,39.062,31.738,24.414,63.477,0
1539620501.133,24.902,46.875,28.320,23.438,47.852,0
1539620501.137,33.203,41.016,31.250,28.809,51.270,0
1539620501.141,31.738,37.109,35.156,27.832,6.836,0
1539620501.145,24.902,44.922,32.715,26.367,14.160,0
1539620501.149,20.996,47.363,32.227,26.367,87.402,0
1539620501.153,22.949,40.527,32.227,33.691,52.734,0
1539620501.157,28.320,41.016,32.715,33.203,-21.973,0
1539620501.161,28.320,47.852,33.203,23.438,15.137,0
1539620501.165,25.879,43.945,33.203,24.902,80.566,0
1539620501.169,30.273,38.574,33.203,29.297,87.402,0
1539620501.173,31.738,33.203,34.668,34.668,18.066,0
1539620501.176,30.762,35.645,34.668,33.203,37.109,0
1539620501.180,32.715,39.551,30.762,28.320,60.059,0
1539620501.184,29.297,32.227,33.691,31.738,-2.441,0
1539620501.188,27.344,37.598,34.668,32.227,17.578,0
1539620501.192,27.832,51.758,32.227,30.762,-4.883,0
1539620501.196,26.855,46.875,27.344,34.668,-17.090,0
1539620501.200,26.367,46.387,26.367,32.715,41.504,0
1539620501.204,26.367,42.969,32.227,32.227,8.789,0
1539620501.208,24.902,42.969,34.180,36.133,-7.324,0
1539620501.212,27.832,47.852,34.180,35.156,-9.766,0
1539620501.216,32.227,48.340,33.203,40.527,-31.250,0
1539620501.219,30.273,53.711,33.691,37.598,28.320,0
1539620501.223,25.879,55.176,30.762,32.227,100.586,0
1539620501.227,27.344,47.363,27.832,35.156,28.320,0
1539620501.231,28.320,39.062,31.738,27.344,-32.715,1
1539620501.235,29.297,54.199,30.273,29.785,25.879,0
1539620501.239,28.320,55.176,27.832,35.156,60.059,0
1539620501.243,29.297,43.457,30.762,33.691,33.691,0
1539620501.247,31.250,41.016,33.691,39.062,19.043,0
1539620501.251,31.738,44.922,35.156,36.621,41.992,0
1539620501.255,30.273,48.340,36.621,34.668,98.633,0
1539620501.258,28.320,44.434,35.645,31.250,102.051,0
1539620501.262,27.344,41.016,32.715,27.832,33.691,0
1539620501.266,22.949,35.645,31.250,31.738,-13.184,0
1539620501.270,22.949,35.156,29.785,35.645,25.391,0
1539620501.274,23.926,37.598,30.762,32.715,58.594,0
1539620501.278,20.996,42.969,33.203,21.973,76.172,0
1539620501.282,23.438,55.176,29.297,24.414,84.961,0
1539620501.286,24.902,50.781,29.297,29.785,25.879,0
1539620501.290,25.879,45.898,33.203,31.738,5.371,0
1539620501.294,34.180,41.504,32.715,36.133,31.738,0
1539620501.298,33.203,30.273,30.762,32.227,24.902,0
1539620501.301,22.949,29.297,29.297,28.809,5.371,0
1539620501.305,21.484,29.297,26.855,30.762,-17.578,0
1539620501.309,23.926,33.691,28.809,31.250,-6.836,0
1539620501.313,21.484,36.621,33.691,31.738,75.195,0
1539620501.317,26.367,30.762,33.691,33.203,84.473,0
1539620501.321,30.762,28.320,32.715,32.227,92.285,0
1539620501.325,26.367,36.621,30.273,29.297,66.406,0
1539620501.329,25.879,41.016,30.762,33.691,31.250,0
1539620501.333,28.809,36.133,34.668,36.621,23.926,0
1539620501.337,30.762,35.156,34.668,31.738,10.254,0
1539620501.341,31.250,40.039,34.668,35.645,-14.160,0
1539620501.344,30.273,43.945,34.668,40.039,34.668,0
1539620501.348,31.738,41.992,34.668,40.527,54.688,0
1539620501.352,35.156,42.969,32.715,44.434,21.484,0
1539620501.356,34.180,45.410,32.227,40.527,58.594,0
1539620501.360,29.297,36.621,33.691,36.621,24.902,0
1539620501.364,30.762,28.320,34.180,31.738,58.594,0
1539620501.368,34.668,33.203,34.180,31.250,91.309,0
1539620501.372,28.809,39.551,35.156,35.645,31.250,0
1539620501.376,25.879,36.621,36.133,34.180,4.883,0
1539620501.380,27.832,38.574,34.668,37.598,7.812,0
1539620501.383,26.367,39.062,32.227,40.039,40.039,0
1539620501.387,25.879,40.039,33.691,36.621,21.484,0
1539620501.391,27.344,38.086,36.133,37.109,14.160,0
1539620501.395,26.855,36.621,35.156,37.109,47.363,0
1539620501.399,26.367,39.551,36.133,30.762,6.348,0
1539620501.403,24.902,36.621,32.227,31.738,1.953,0
1539620501.407,23.926,26.367,32.227,33.691,5.859,0
1539620501.411,23.926,23.438,39.551,28.809,4.883,0
1539620501.415,27.344,35.156,38.086,29.785,38.086,0
1539620501.419,28.320,40.527,33.203,32.227,20.996,0
1539620501.423,24.414,34.180,35.645,33.203,7.812,0
1539620501.426,25.391,35.156,38.574,32.715,62.012,0
1539620501.430,21.973,41.504,38.574,33.203,72.754,0
1539620501.434,18.066,34.668,37.598,36.621,54.688,0
1539620501.438,19.043,28.320,38.086,35.156,44.434,0
1539620501.442,18.555,35.156,35.156,34.668,47.852,0
1539620501.446,21.484,37.109,31.738,32.227,88.379,0
1539620501.450,19.531,32.715,33.203,30.762,70.801,0
1539620501.454,16.113,16.602,33.691,29.785,57.617,0
1539620501.458,16.602,21.484,33.203,30.762,15.625,0
1539620501.462,20.996,46.387,33.203,33.691,12.207,0
1539620501.466,22.461,42.969,33.203,30.273,22.461,0
1539620501.469,21.484,31.250,30.762,31.250,22.461,0
1539620501.473,27.832,31.250,28.320,30.762,24.414,0
1539620501.477,29.785,36.621,31.738,29.297,20.996,0
1539620501.481,29.297,33.203,36.133,30.273,21.484,0
1539620501.485,25.391,27.832,36.133,32.227,17.578,0
1539620501.489,27.344,32.715,35.156,36.621,3.906,0
1539620501.493,33.203,31.250,29.297,41.016,35.156,0
1539620501.497,27.344,21.973,34.180,41.016,72.266,0
1539620501.501,16.602,21.484,38.574,36.621,55.176,0
1539620501.505,12.207,26.367,35.645,31.250,59.082,0
1539620501.508,13.184,28.320,38.086,26.855,85.449,0
1539620501.512,11.719,19.043,40.039,24.902,85.938,0
1539620501.516,12.695,10.742,39.062,20.996,52.246,0
1539620501.520,16.113,24.902,38.574,26.855,33.691,0
1539620501.524,20.996,32.715,36.621,32.227,90.820,0
1539620501.528,25.391,22.949,36.133,27.832,62.500,0
1539620501.532,23.438,26.855,35.645,25.879,39.551,0
1539620501.536,23.926,31.738,33.203,31.250,42.969,0
1539620501.540,22.949,31.738,30.762,31.738,1.953,0
1539620501.544,21.973,31.738,32.715,29.297,36.133,0
1539620501.548,22.949,28.320,35.645,30.273,56.152,0
1539620501.551,24.902,30.273,36.133,34.668,34.180,0
1539620501.555,23.926,34.668,36.133,35.645,45.410,0
1539620501.559,20.996,27.832,33.203,29.785,62.988,0
1539620501.563,20.996,18.555,33.691,28.809,29.297,0
1539620501.567,26.367,35.156,37.109,34.180,93.750,0
1539620501.571,30.762,41.504,36.621,36.133,91.797,0
1539620501.575,25.879,34.180,32.715,33.203,38.574,0
1539620501.579,23.438,36.621,33.691,32.227,46.387,0
1539620501.583,24.902,41.992,35.156,35.645,6.348,0
1539620501.587,21.973,39.551,34.180,30.273,33.203,0
1539620501.591,21.973,32.715,35.156,26.367,51.270,0
1539620501.594,23.926,29.785,35.156,28.320,-2.930,0
1539620501.598,23.926,33.691,35.156,27.344,28.809,0
1539620501.602,25.879,36.133,34.668,33.203,102.539,0
1539620501.606,30.273,31.738,35.156,38.086,99.121,0
1539620501.610,33.203,37.598,32.715,34.180,48.340,0
1539620501.614,36.133,46.387,32.227,32.715,20.020,0
1539620501.618,36.133,42.480,34.668,35.645,41.992,0
1539620501.622,28.320,39.062,32.715,34.668,18.066,0
1539620501.626,26.855,51.270,31.738,33.203,9.766,0
1539620501.630,25.879,46.875,35.645,34.180,24.414,0
1539620501.633,20.996,39.062,36.133,32.715,21.973,0
1539620501.637,22.461,40.039,35.156,32.715,31.250,0
1539620501.641,23.926,37.109,36.133,35.645,18.066,0
1539620501.645,26.367,40.527,35.156,33.691,49.316,0
1539620501.649,30.762,36.133,34.668,36.133,78.125,0
1539620501.653,30.762,27.344,34.668,38.574,26.367,0
1539620501.657,29.297,31.738,34.180,35.645,49.316,0
1539620501.661,26.855,37.598,37.598,37.598,57.129,0
1539620501.665,26.855,39.062,35.645,35.645,48.340,0
1539620501.669,26.367,35.645,34.180,33.691,75.195,0
1539620501.673,26.367,38.086,34.668,33.691,38.086,0
1539620501.676,25.879,35.645,36.133,33.203,49.316,0
1539620501.680,26.367,33.691,38.086,41.016,76.660,0
1539620501.684,27.832,37.598,34.668,41.504,49.316,0
1539620501.688,24.902,36.133,31.738,37.598,28.809,0
1539620501.692,22.949,32.227,33.203,31.738,22.461,0
1539620501.696,29.297,29.297,33.691,27.344,19.531,0
1539620501.700,30.273,40.039,33.691,27.832,3.418,0
1539620501.704,22.949,46.387,34.668,27.344,34.180,0
1539620501.708,24.902,38.086,35.645,26.855,11.230,0
1539620501.712,30.762,40.039,34.668,30.762,-14.648,0
1539620501.716,31.738,48.340,35.156,34.180,9.766,0
1539620501.719,27.344,48.340,34.668,38.086,55.176,0
1539620501.723,25.879,37.598,34.668,37.598,24.902,0
1539620501.727,32.227,35.645,36.621,36.621,-14.648,0
1539620501.731,35.645,43.457,32.715,36.133,1.465,0
1539620501.735,33.691,46.387,35.645,41.504,38.574,0
1539620501.739,35.156,34.668,40.527,43.457,20.996,0
1539620501.743,33.203,33.203,36.621,33.203,-14.160,0
1539620501.747,28.320,52.734,34.180,33.691,50.781,0
1539620501.751,29.297,51.270,33.691,34.180,51.758,0
1539620501.755,29.297,41.504,30.762,30.762,-2.441,0
1539620501.758,29.297,34.180,32.715,32.715,26.855,0
1539620501.762,28.320,31.738,33.691,29.297,66.406,0
1539620501.766,27.832,40.039,33.203,32.227,20.508,0
1539620501.770,30.762,42.969,36.133,37.598,27.344,0
1539620501.774,32.715,43.945,36.133,36.133,8.789,0
1539620501.778,28.809,42.480,36.621,34.180,61.523,0
1539620501.782,26.367,29.297,36.133,34.180,59.570,0
1539620501.786,31.738,23.438,36.621,34.668,14.648,0
1539620501.790,33.203,37.109,40.527,36.621,83.008,0
1539620501.794,33.203,42.480,37.598,34.180,52.734,0
1539620501.798,31.738,34.668,28.809,31.250,70.312,0
1539620501.801,31.250,32.227,30.273,32.715,46.387,0
1539620501.805,32.715,34.668,33.691,31.738,0.488,0
1539620501.809,34.180,36.621,34.180,36.621,-20.020,0
1539620501.813,35.156,33.691,39.062,40.039,-29.785,0
1539620501.817,32.227,28.320,37.109,35.645,32.715,0
1539620501.821,32.227,32.715,35.156,32.715,16.113,0
1539620501.825,33.203,37.598,39.551,40.039,24.414,0
1539620501.829,31.738,25.879,41.992,39.551,51.270,0
1539620501.833,30.762,26.855,39.062,30.273,4.395,0
1539620501.837,27.832,41.504,40.039,31.738,37.598,0
1539620501.841,30.273,39.062,39.551,36.133,57.129,0
1539620501.844,31.738,36.621,33.203,30.273,58.105,0
1539620501.848,28.320,37.109,35.645,27.344,64.941,0
1539620501.852,30.762,41.504,39.551,35.156,47.363,0
1539620501.856,32.227,44.922,40.039,36.133,57.129,0
1539620501.860,27.832,32.227,38.574,25.391,61.035,0
1539620501.864,21.973,25.879,34.668,24.414,55.664,0
1539620501.868,20.996,33.691,33.691,30.762,22.461,0
1539620501.872,24.414,30.762,34.668,29.297,32.227,0
1539620501.876,28.320,26.855,36.621,26.855,35.156,0
1539620501.880,27.344,33.691,37.109,25.879,38.574,0
1539620501.883,22.461,41.504,33.203,23.438,55.176,0
1539620501.887,20.508,32.227,32.227,20.020,20.020,0
1539620501.891,27.344,25.879,28.809,21.484,26.367,0
1539620501.895,33.691,38.574,30.273,29.785,18.066,0
1539620501.899,20.996,35.645,39.551,25.879,-15.625,0
1539620501.903,16.113,28.809,41.504,20.996,34.180,0
1539620501.907,19.531,33.203,43.457,20.996,32.715,0
1539620501.911,14.648,37.109,43.945,16.602,5.371,0
1539620501.915,14.160,31.250,41.016,17.090,30.273,0
1539620501.919,13.184,25.879,40.039,13.672,29.785,0
1539620501.923,15.625,26.367,41.992,13.672,31.250,0
1539620501.926,18.555,27.832,40.527,16.602,33.691,0
1539620501.930,20.020,30.762,38.086,18.555,5.859,0
1539620501.934,23.438,29.785,36.621,20.020,23.926,0
1539620501.938,27.832,32.227,32.227,22.949,35.156,0
1539620501.942,27.832,41.992,35.156,27.344,-13.184,0
1539620501.946,25.879,43.945,40.527,27.832,-6.348,0
1539620501.950,25.391,44.434,39.551,22.949,46.387,0
1539620501.954,25.391,44.922,39.062,21.973,30.273,0
1539620501.958,20.996,39.551,38.086,23.438,11.719,0
1539620501.962,21.484,38.574,36.621,24.414,6.836,0
1539620501.966,25.879,38.574,33.203,20.508,3.906,0
1539620501.969,23.438,28.320,35.645,22.461,40.527,0
1539620501.973,23.926,22.461,39.551,26.367,43.457,0
1539620501.977,24.902,36.621,37.109,27.344,68.359,0
1539620501.981,23.438,39.062,34.668,28.809,88.379,0
1539620501.985,28.809,46.387,36.133,29.785,58.105,0
1539620501.989,34.180,50.781,37.109,32.227,39.551,0
1539620501.993,35.156,42.480,34.180,34.668,32.715,0
1539620501.997,34.668,42.969,34.180,32.227,63.477,0
1539620502.001,31.738,41.504,32.227,28.320,29.297,0
1539620502.005,33.691,36.133,33.691,29.785,-8.301,0
1539620502.008,32.227,34.668,37.109,33.203,34.668,0
1539620502.012,32.715,34.180,32.715,29.297,23.438,0
1539620502.016,30.273,33.203,32.715,26.855,16.113,0
1539620502.020,29.785,32.715,31.250,29.785,62.500,0
1539620502.024,32.227,29.297,27.344,27.832,80.566,0
1539620502.028,28.809,35.156,29.785,23.926,76.660,0
1539620502.032,29.297,43.945,37.598,24.902,77.148,0
1539620502.036,31.738,41.016,40.039,27.344,29.297,0
1539620502.040,30.762,33.203,34.180,30.273,-32.227,0
1539620502.044,27.344,40.527,33.203,27.832,2.441,0
1539620502.048,26.367,50.781,38.086,31.250,34.180,0
1539620502.051,30.273,46.875,36.133,30.273,11.230,0
1539620502.055,30.762,42.969,33.691,28.320,17.090,0
1539620502.059,25.879,42.969,33.691,29.297,29.785,0
1539620502.063,23.926,41.504,32.715,27.832,-22.949,0
1539620502.067,26.367,43.457,33.203,30.273,-18.066,0
1539620502.071,24.902,40.039,35.156,26.855,71.777,0
1539620502.075,23.438,41.992,36.621,25.391,73.730,0
1539620502.079,26.855,47.852,36.133,30.273,55.176,0
1539620502.083,24.414,40.527,36.621,29.785,69.824,0
1539620502.087,25.879,38.086,39.062,24.902,23.926,0
1539620502.091,29.785,39.062,38.086,25.879,11.719,0
1539620502.094,25.879,35.645,37.109,28.809,34.180,0
1539620502.098,22.949,33.691,38.086,23.926,39.551,0
1539620502.102,26.855,36.621,37.109,28.320,2.930,0
1539620502.106,25.879,39.551,32.715,32.715,30.762,0
1539620502.110,25.391,33.691,35.645,35.645,49.805,0
1539620502.114,27.344,23.438,39.062,39.062,12.695,0
1539620502.118,24.902,31.250,35.156,33.203,56.641,0
1539620502.122,22.949,45.898,32.227,34.180,18.555,0
1539620502.126,28.320,47.363,32.227,33.203,28.320,0
1539620502.130,31.250,41.016,35.156,30.762,29.785,0
1539620502.133,27.344,40.039,31.250,28.809,19.531,0
1539620502.137,26.855,44.922,29.785,30.762,18.066,0
1539620502.141,27.344,38.574,29.297,31.738,-30.762,0
1539620502.145,28.809,35.156,27.832,31.250,0.000,0
1539620502.149,35.156,37.598,29.297,28.809,54.199,0
1539620502.153,35.645,29.297,29.785,29.785,13.184,0
1539620502.157,30.273,24.902,32.227,32.715,-8.301,0
1539620502.161,30.762,26.367,34.668,34.180,-14.648,0
1539620502.165,30.762,32.227,30.762,29.785,-6.348,0
1539620502.169,28.809,36.621,26.855,27.344,23.926,0
1539620502.173,31.250,36.133,29.297,31.738,20.508,0
1539620502.176,27.832,37.598,30.273,32.715,74.707,0
1539620502.180,30.273,41.016,29.297,31.738,88.867,0
1539620502.184,34.180,41.992,28.809,37.598,80.566,0
1539620502.188,31.250,39.551,30.762,43.457,66.895,0
1539620502.192,33.203,40.039,32.715,44.434,43.945,0
1539620502.196,32.227,38.574,33.203,41.504,48.340,0
1539620502.200,29.785,38.574,33.203,38.086,62.500,0
1539620502.204,32.227,28.809,35.645,39.062,62.500,0
1539620502.208,34.180,27.344,32.715,34.668,22.461,0
1539620502.212,31.250,43.457,30.273,28.320,54.688,0
1539620502.216,23.926,36.133,34.180,29.785,112.305,0
1539620502.219,19.531,30.273,33.203,33.203,104.492,0
1539620502.223,24.414,32.227,33.691,31.250,18.066,0
1539620502.227,27.344,35.156,38.574,27.344,15.137,0
1539620502.231,27.832,41.016,36.621,34.180,74.219,0
1539620502.235,29.785,41.016,32.715,37.109,58.594,0
1539620502.239,31.738,49.805,32.227,36.133,105.957,0
1539620502.243,33.691,51.270,29.785,35.156,140.625,0
1539620502.247,36.133,48.340,32.227,33.203,108.887,0
1539620502.251,39.551,43.945,38.086,39.062,26.367,0
1539620502.255,37.598,48.828,40.039,43.945,9.277,0
1539620502.258,31.738,55.664,36.133,40.039,15.625,0
1539620502.262,32.227,43.945,33.203,37.598,-14.648,0
1539620502.266,35.156,37.109,37.109,40.039,4.883,0
1539620502.270,31.250,51.270,36.621,39.062,48.340,0
1539620502.274,27.344,49.316,34.180,35.156,32.227,0
1539620502.278,32.227,35.645,36.621,40.527,29.297,0
1539620502.282,30.762,36.133,39.551,41.992,16.113,0
1539620502.286,20.996,42.480,33.203,37.109,2.441,0
1539620502.290,27.832,34.180,32.715,41.992,53.711,0
1539620502.294,34.180,28.809,38.086,44.922,19.043,0
1539620502.298,28.809,33.203,37.109,41.992,10.742,0
1539620502.301,34.668,37.109,35.156,45.410,14.160,0
1539620502.305,34.180,40.527,34.180,47.363,10.742,0
1539620502.309,27.832,31.738,37.109,41.016,19.043,0
1539620502.313,31.250,30.762,39.062,41.504,4.395,0
1539620502.317,38.086,47.852,39.551,45.898,9.766,0
1539620502.321,37.109,47.363,38.574,44.434,30.273,0
1539620502.325,35.645,36.621,37.109,43.945,-13.672,0
1539620502.329,37.109,38.574,35.156,46.387,-10.254,0
1539620502.333,34.180,40.039,36.133,41.016,73.242,0
1539620502.337,34.668,34.668,39.062,40.527,64.453,0
1539620502.341,34.180,31.738,36.621,39.551,6.348,0
1539620502.344,36.133,34.180,35.645,34.668,9.766,0
1539620502.348,37.109,41.504,36.133,33.691,60.547,0
1539620502.352,35.645,32.715,34.180,30.273,29.297,0
1539620502.356,31.250,23.926,35.645,31.250,-2.441,0
1539620502.360,25.879,34.180,36.621,29.785,36.133,0
1539620502.364,23.926,28.320,36.621,26.855,45.410,0
1539620502.368,22.949,29.297,35.645,31.738,4.883,0
1539620502.372,27.344,38.574,33.691,33.691,-23.438,0
1539620502.376,30.273,45.410,33.203,38.086,36.621,0
1539620502.380,28.809,40.039,34.180,39.062,108.398,0
1539620502.383,29.785,32.715,33.203,37.598,70.312,0
1539620502.387,30.273,35.645,30.762,39.062,38.086,0
1539620502.391,26.367,27.832,35.156,34.668,39.551,0
1539620502.395,27.832,32.227,32.715,34.180,2.441,0
1539620502.399,30.273,34.180,30.762,32.715,56.152,0
1539620502.403,30.762,31.250,32.715,30.762,20.508,0
1539620502.407,29.297,49.805,33.203,32.227,-21.484,0
1539620502.411,29.297,49.805,34.180,34.180,5.859,0
1539620502.415,36.133,42.969,35.156,37.109,7.324,0
1539620502.419,36.133,42.969,36.133,37.598,49.316,0
1539620502.423,32.715,39.551,34.180,42.480,-8.301,0
1539620502.426,31.250,37.598,31.250,45.410,-54.688,0
1539620502.430,33.691,33.691,33.691,40.039,-19.531,0
1539620502.434,34.180,39.551,35.645,40.527,22.461,0
1539620502.438,33.691,46.875,35.156,40.039,21.484,0
1539620502.442,31.738,47.363,35.156,39.062,-9.766,0
1539620502.446,28.320,39.551,36.133,33.691,0.000,0
1539620502.450,29.785,46.875,31.250,28.809,27.832,0
1539620502.454,32.715,55.176,27.832,34.668,33.203,0
1539620502.458,33.203,45.898,31.250,38.086,36.133,0
1539620502.462,36.133,43.945,33.691,38.574,76.172,1
1539620502.466,33.691,48.340,30.273,39.551,80.078,0
1539620502.469,24.902,45.410,31.250,38.574,99.121,0
1539620502.473,26.367,38.086,35.645,41.504,94.238,0
1539620502.477,32.227,38.574,35.645,42.480,82.031,0
1539620502.481,33.691,40.527,35.645,41.992,77.637,0
1539620502.485,35.645,31.250,33.691,43.945,46.875,0
1539620502.489,36.133,28.320,35.156,42.480,41.504,0
1539620502.493,36.621,37.109,33.203,40.039,5.859,0
1539620502.497,34.668,48.828,26.367,35.156,4.883,0
1539620502.501,29.297,47.363,27.344,39.062,25.879,0
1539620502.505,29.297,40.527,30.273,39.062,23.926,0
1539620502.508,30.762,38.574,32.227,30.273,66.895,0
1539620502.512,32.715,37.598,32.227,29.785,28.320,0
1539620502.516,33.691,35.645,29.785,32.227,11.719,0
1539620502.520,31.250,34.668,32.715,32.227,66.406,0
1539620502.524,29.785,39.062,34.668,34.668,70.312,0
1539620502.528,27.344,35.156,31.738,31.738,51.270,0
1539620502.532,25.391,19.043,33.203,29.785,7.812,0
1539620502.536,29.785,15.137,36.621,31.738,-11.719,0
1539620502.540,31.250,35.156,34.668,34.668,32.227,0
1539620502.544,31.250,43.945,31.250,36.621,58.594,0
1539620502.548,29.785,37.109,33.203,33.691,70.801,0
1539620502.551,24.414,27.344,34.180,29.297,95.703,0
1539620502.555,20.996,28.320,32.227,33.203,104.004,0
1539620502.559,22.461,36.621,30.762,39.551,74.219,0
1539620502.563,20.996,27.832,27.344,30.273,20.996,0
1539620502.567,20.508,24.414,29.785,25.879,5.859,0
1539620502.571,28.320,31.738,32.227,31.250,56.152,0
1539620502.575,27.832,29.785,28.320,32.227,33.203,0
1539620502.579,24.414,17.578,32.715,33.691,32.715,0
1539620502.583,25.391,21.484,36.621,35.156,104.004,0
1539620502.587,26.367,34.668,32.715,37.109,75.684,0
1539620502.591,26.367,32.715,30.273,36.621,41.992,0
1539620502.594,26.367,28.320,31.738,34.668,41.504,0
1539620502.598,26.855,33.203,35.156,34.668,56.641,0
1539620502.602,25.879,37.598,37.598,34.180,11.719,0
1539620502.606,23.438,30.762,36.621,35.156,7.324,0
1539620502.610,21.484,22.949,35.645,36.133,46.875,0
1539620502.614,19.531,32.715,35.645,29.297,-4.395,0
1539620502.618,22.461,40.039,31.738,31.250,9.277,0
1539620502.622,27.832,33.691,32.227,35.645,10.254,0
1539620502.626,27.344,28.320,35.156,33.203,-48.340,0
1539620502.630,29.297,32.715,31.738,33.203,4.395,0
1539620502.633,29.297,39.062,28.320,31.250,34.180,0
1539620502.637,26.367,34.668,30.273,33.691,24.414,0
1539620502.641,25.391,25.391,33.691,34.180,48.340,0
1539620502.645,26.855,45.410,34.668,32.227,49.805,0
1539620502.649,26.855,53.223,31.738,33.203,67.383,0
1539620502.653,24.902,34.180,27.344,34.180,61.035,0
1539620502.657,27.344,34.180,30.273,34.668,14.160,0
1539620502.661,28.809,46.387,34.180,35.156,88.867,0
1539620502.665,37.598,36.133,36.133,38.574,107.422,0
1539620502.669,39.062,32.227,35.645,38.574,55.664,0
1539620502.673,31.738,41.992,32.715,35.645,79.590,0
1539620502.676,35.156,39.062,34.668,41.504,38.086,0
1539620502.680,31.738,43.945,34.668,41.016,34.180,0
1539620502.684,28.320,37.109,36.621,34.668,47.852,0
1539620502.688,26.855,35.645,40.039,34.668,24.902,0
1539620502.692,26.367,49.805,37.109,36.621,55.176,0
1539620502.696,25.391,41.504,36.133,36.621,70.801,0
1539620502.700,22.461,33.691,38.574,38.086,73.242,0
1539620502.704,21.973,39.551,38.086,37.109,102.051,0
1539620502.708,21.484,35.645,34.668,33.203,87.402,0
1539620502.712,24.902,24.902,35.645,34.668,91.309,0
1539620502.716,26.855,23.926,38.574,39.062,120.117,0
1539620502.719,25.879,22.949,40.527,38.086,76.660,0
1539620502.723,23.438,27.344,40.527,33.691,33.691,0
1539620502.727,22.949,30.273,36.621,31.250,66.895,0
1539620502.731,25.391,24.414,36.621,29.785,95.215,0
1539620502.735,26.367,37.598,34.180,33.691,57.129,0
1539620502.739,25.879,34.180,35.156,34.668,31.738,0
1539620502.743,30.273,24.902,37.109,34.180,20.020,0
1539620502.747,29.785,35.156,35.645,35.156,31.250,0
1539620502.751,25.391,40.527,33.203,27.832,24.414,0
1539620502.755,28.809,40.039,36.133,31.738,30.273,0
1539620502.758,29.785,40.039,36.621,36.133,98.145,0
1539620502.762,32.715,40.039,30.762,38.086,66.406,0
1539620502.766,31.738,35.645,32.715,36.621,14.160,0
1539620502.770,24.414,37.598,38.574,30.273,20.996,0
1539620502.774,22.949,34.668,41.992,30.762,42.969,0
1539620502.778,22.949,35.156,41.992,29.297,4.395,0
1539620502.782,18.555,48.828,41.504,27.832,4.883,0
1539620502.786,14.648,45.410,39.551,23.438,30.762,0
1539620502.790,19.043,38.574,41.992,26.855,13.184,0
1539620502.794,24.414,37.109,44.434,28.809,6.836,0
1539620502.798,19.043,39.551,41.992,27.344,-20.508,0
1539620502.801,16.113,36.133,41.992,31.250,-14.160,0
1539620502.805,23.438,35.156,42.480,37.598,18.066,0
1539620502.809,28.809,41.016,41.504,37.598,-11.230,0
1539620502.813,29.785,37.598,41.992,36.621,-16.602,0
1539620502.817,27.344,32.715,41.504,38.574,29.785,0
1539620502.821,26.855,28.809,42.480,40.527,34.668,0
1539620502.825,29.785,31.738,42.969,39.062,-6.348,0
1539620502.829,29.297,38.086,39.062,41.016,16.113,0
1539620502.833,27.344,27.832,36.133,37.109,16.602,0
1539620502.837,28.809,31.250,39.551,34.180,4.395,0
1539620502.841,30.762,45.410,39.062,34.668,56.152,0
1539620502.844,31.738,39.062,36.621,33.203,36.621,0
1539620502.848,35.156,37.598,35.645,40.039,60.059,0
1539620502.852,33.691,39.062,33.691,38.574,99.121,0
1539620502.856,30.762,35.645,33.691,33.203,97.168,0
1539620502.860,33.691,31.250,36.133,34.668,49.316,0
1539620502.864,28.320,16.602,36.133,32.715,-3.418,0
1539620502.868,29.785,19.531,36.133,36.621,3.418,0
1539620502.872,35.645,38.574,34.668,36.133,25.391,0
1539620502.876,29.297,35.645,32.227,35.156,27.344,0
1539620502.880,26.367,34.180,38.086,41.504,20.508,0
1539620502.883,33.691,30.762,39.062,43.945,3.906,0
1539620502.887,34.668,27.344,35.645,44.922,26.855,0
1539620502.891,27.832,31.738,37.598,47.852,74.707,0
1539620502.895,29.785,21.973,36.621,43.945,61.523,0
1539620502.899,30.762,18.066,33.691,34.668,43.945,0
1539620502.903,28.320,26.855,32.227,33.691,-0.488,0
1539620502.907,29.297,25.391,34.668,40.527,11.230,0
1539620502.911,28.809,22.461,38.086,38.574,30.273,0
1539620502.915,25.879,33.691,37.109,33.203,17.090,0
1539620502.919,25.879,37.109,32.715,34.668,47.852,0
1539620502.923,28.809,29.297,31.250,36.621,51.758,0
1539620502.926,30.762,28.809,36.621,34.668,6.348,0
1539620502.930,29.297,35.645,36.133,32.227,23.926,0
1539620502.934,29.297,39.551,32.715,30.762,101.074,0
1539620502.938,31.738,37.598,32.227,31.250,79.590,0
1539620502.942,31.738,33.203,31.738,28.320,11.230,0
1539620502.946,27.832,35.645,29.297,25.879,16.113,0
1539620502.950,25.391,40.039,28.320,29.785,50.781,0
1539620502.954,24.414,28.320,31.738,29.297,10.742,0
1539620502.958,22.461,23.438,33.691,26.855,24.902,0
1539620502.962,24.902,31.738,34.180,30.762,79.102,0
1539620502.966,24.902,33.203,29.297,30.273,33.691,0
1539620502.969,25.391,37.598,28.320,30.762,18.555,0
1539620502.973,27.344,40.039,35.156,33.691,26.855,0
1539620502.977,23.926,33.691,35.156,31.250,42.969,0
1539620502.981,25.391,29.785,31.738,37.109,17.090,0
1539620502.985,32.227,32.715,34.180,44.922,-10.254,0
1539620502.989,32.227,37.598,34.668,42.480,7.324,0
1539620502.993,30.273,34.668,37.109,47.363,40.039,0
1539620502.997,34.668,29.297,40.527,52.734,98.145,0
1539620503.001,32.715,28.809,33.203,43.945,67.383,0
1539620503.005,27.832,36.621,31.250,34.180,53.223,0
1539620503.008,27.344,42.480,35.156,29.297,35.156,0
1539620503.012,30.762,37.109,32.227,25.879,-12.695,0
1539620503.016,34.668,31.250,28.320,25.391,2.441,0
1539620503.020,27.344,44.434,29.785,25.879,24.414,0
1539620503.024,22.949,51.270,32.715,25.391,47.363,0
1539620503.028,24.414,38.574,33.203,25.879,-15.137,0
1539620503.032,21.484,41.016,31.250,24.414,-15.625,0
1539620503.036,22.949,43.457,31.250,28.809,29.785,0
1539620503.040,25.391,39.062,32.227,32.227,78.613,0
1539620503.044,28.320,41.504,36.133,33.691,78.125,0
1539620503.048,28.809,35.645,36.133,30.762,-13.672,0
1539620503.051,28.809,39.062,34.180,35.156,27.832,0
1539620503.055,28.320,41.016,28.809,36.133,76.660,0
1539620503.059,30.273,32.227,29.297,32.227,41.504,0
1539620503.063,31.250,32.227,38.574,36.621,53.711,0
1539620503.067,25.879,45.410,38.086,38.574,63.477,0
1539620503.071,24.414,40.527,35.645,41.016,44.434,0
1539620503.075,24.414,29.785,36.133,37.598,16.113,0
1539620503.079,21.973,31.250,33.203,36.133,21.973,0
1539620503.083,21.973,36.133,33.691,33.691,34.668,0
1539620503.087,28.809,37.109,34.668,30.273,102.051,0
1539620503.091,28.320,35.645,33.691,31.250,126.465,0
1539620503.094,20.996,21.973,33.203,38.086,67.871,0
1539620503.098,23.438,16.602,29.785,39.551,32.715,0
1539620503.102,29.297,23.926,31.738,36.133,22.461,0
1539620503.106,31.738,21.484,36.621,37.598,36.621,0
1539620503.110,26.855,30.762,35.645,35.156,71.289,0
1539620503.114,25.391,34.180,34.180,34.668,47.363,0
1539620503.118,29.297,26.855,34.180,34.180,26.855,0
1539620503.122,30.762,27.832,33.691,31.738,78.613,0
1539620503.126,33.691,33.203,36.621,31.738,47.363,0
1539620503.130,35.156,30.762,36.133,35.645,61.523,0
1539620503.133,29.785,24.414,33.203,31.738,59.082,0
1539620503.137,21.973,25.391,31.738,26.367,60.547,0
1539620503.141,20.996,25.879,30.273,24.902,63.965,0
1539620503.145,26.855,29.297,32.715,30.273,48.340,0
1539620503.149,30.273,21.484,34.668,31.250,22.949,0
1539620503.153,26.367,16.113,35.645,31.250,24.414,0
1539620503.157,22.949,33.691,33.203,32.715,29.297,0
1539620503.161,21.973,36.133,31.250,31.738,-14.648,0
1539620503.165,21.484,35.645,33.203,34.668,40.039,0
1539620503.169,23.438,38.574,37.109,39.551,59.082,0
1539620503.173,27.832,36.621,41.016,42.480,36.133,0
1539620503.176,29.785,27.344,38.574,41.504,11.230,0
1539620503.180,25.879,27.832,36.621,38.574,4.883,0
1539620503.184,23.438,31.250,34.180,34.668,17.090,0
1539620503.188,24.414,27.344,35.156,34.668,-64.941,0
1539620503.192,22.949,29.785,34.180,36.621,-20.996,0
1539620503.196,22.461,26.855,33.691,30.273,15.625,0
1539620503.200,21.973,33.691,35.645,27.344,-30.762,0
1539620503.204,22.461,41.016,32.715,32.227,-19.043,0
1539620503.208,23.438,35.156,29.297,34.668,12.695,0
1539620503.212,28.809,38.574,31.250,32.227,77.148,0
1539620503.216,30.273,42.480,34.668,25.879,69.336,0
1539620503.219,22.949,33.203,35.645,27.344,63.965,0
1539620503.223,20.508,32.715,36.133,32.227,78.125,0
1539620503.227,22.461,39.551,33.691,26.367,17.090,0
1539620503.231,28.320,41.504,35.645,28.809,14.160,0
1539620503.235,29.297,38.086,36.621,37.598,62.012,0
1539620503.239,30.762,29.297,38.086,36.133,51.758,0
1539620503.243,34.180,38.086,35.645,32.227,22.949,0
1539620503.247,29.297,54.199,32.715,34.668,42.480,0
1539620503.251,24.902,47.852,30.762,35.156,46.387,0
1539620503.255,27.344,40.039,28.320,32.715,42.969,0
1539620503.258,26.855,38.086,29.785,32.715,19.043,0
1539620503.262,22.949,37.598,30.273,33.691,15.625,0
1539620503.266,22.461,33.203,30.762,34.180,61.523,0
1539620503.270,23.926,34.668,30.273,32.715,62.988,0
1539620503.274,25.391,39.062,31.250,33.203,2.930,0
1539620503.278,29.785,41.016,32.227,33.203,47.363,0
1539620503.282,28.809,25.879,29.785,27.344,57.129,0
1539620503.286,22.461,15.137,30.762,27.832,39.551,0
1539620503.290,18.066,28.320,34.668,29.297,8.301,0
1539620503.294,17.090,35.156,34.668,28.320,-20.508,0
1539620503.298,17.578,34.668,31.250,28.320,62.012,0
1539620503.301,18.555,31.250,32.227,28.320,95.215,0
1539620503.305,20.020,37.109,31.250,31.250,46.387,0
1539620503.309,20.996,37.598,29.785,30.273,35.645,0
1539620503.313,25.879,32.227,31.738,35.645,38.574,0
1539620503.317,26.367,39.551,34.668,37.598,80.566,0
1539620503.321,26.855,44.922,37.598,34.180,45.410,0
1539620503.325,30.273,39.551,36.133,36.621,36.133,0
1539620503.329,31.738,25.391,35.645,40.039,29.297,0
1539620503.333,33.691,30.273,37.109,41.016,-39.551,0
1539620503.337,34.180,52.734,35.645,40.039,-28.809,0
1539620503.341,31.250,53.223,37.109,40.039,40.039,0
1539620503.344,29.785,42.480,38.086,38.086,64.941,0
1539620503.348,32.715,38.086,38.086,37.109,53.223,0
1539620503.352,31.738,42.969,39.551,40.039,54.199,0
1539620503.356,26.367,37.598,41.016,36.621,82.031,0
1539620503.360,28.320,28.320,38.086,40.039,50.781,0
1539620503.364,29.785,43.945,34.668,39.062,38.086,0
1539620503.368,25.879,52.246,38.086,34.668,55.664,0
1539620503.372,23.926,45.410,39.062,37.598,28.320,0
1539620503.376,21.973,38.086,37.598,33.203,49.805,0
1539620503.380,24.414,40.039,36.133,32.715,52.734,0
1539620503.383,23.926,45.898,35.156,31.738,49.805,0
1539620503.387,21.973,36.621,37.598,33.203,20.508,0
1539620503.391,25.879,25.879,36.133,34.180,-12.695,0
1539620503.395,27.832,36.133,34.180,32.227,6.836,0
1539620503.399,27.344,42.969,33.203,34.180,19.531,0
1539620503.403,24.414,26.855,31.250,33.203,72.266,0
1539620503.407,23.926,20.508,33.203,34.180,62.012,0
1539620503.411,23.926,36.133,34.668,37.109,41.504,0
1539620503.415,21.973,40.039,34.668,34.180,59.570,0
1539620503.419,25.879,35.645,37.109,37.598,26.855,0
1539620503.423,28.320,25.391,39.062,42.480,22.461,0
1539620503.426,25.879,25.391,36.621,39.551,44.922,0
1539620503.430,27.832,35.645,36.621,40.527,37.109,0
1539620503.434,29.297,24.902,38.086,42.480,33.691,0
1539620503.438,27.832,20.020,33.691,43.457,5.371,0
1539620503.442,30.273,36.621,35.645,42.480,-13.184,0
1539620503.446,31.250,34.180,41.016,38.086,42.969,0
1539620503.450,31.250,28.809,38.086,43.457,77.148,0
1539620503.454,37.109,28.809,36.133,46.875,37.109,0
1539620503.458,41.992,31.738,38.086,44.434,-15.137,0
1539620503.462,39.062,31.738,38.574,47.363,67.383,0
1539620503.466,36.133,18.555,34.668,43.457,108.398,0
1539620503.469,37.598,22.461,32.715,42.480,37.598,0
1539620503.473,36.621,38.574,35.645,45.410,21.484,0
1539620503.477,31.250,35.645,37.109,41.992,27.832,0
1539620503.481,32.227,24.902,35.645,41.504,10.254,0
1539620503.485,33.691,34.668,33.691,39.551,45.898,0
1539620503.489,31.738,36.621,36.133,39.551,62.012,0
1539620503.493,32.715,27.832,36.621,42.969,6.348,0
1539620503.497,34.180,26.367,33.691,43.945,-11.719,0
1539620503.501,34.668,30.762,31.738,41.504,-7.812,0
1539620503.505,32.227,33.691,32.227,39.551,-3.906,0
1539620503.508,30.762,33.691,33.691,39.062,-4.883,0
1539620503.512,32.715,38.086,34.180,41.992,26.855,0
1539620503.516,28.320,28.809,32.227,41.992,27.344,0
1539620503.520,24.902,20.508,33.203,37.598,7.812,0
1539620503.524,27.344,21.973,31.738,34.668,10.254,0
1539620503.528,28.809,33.691,31.250,37.598,51.758,0
1539620503.532,23.926,49.805,34.668,40.039,73.730,0
1539620503.536,26.855,40.039,32.715,35.645,53.711,0
1539620503.540,32.715,32.715,31.250,35.645,67.383,0
1539620503.544,30.762,31.250,32.227,37.109,5.371,0
1539620503.548,28.320,33.691,36.621,36.621,-42.480,0
1539620503.551,25.391,33.203,38.574,31.738,-44.434,0
1539620503.555,24.414,37.598,36.621,33.691,55.176,0
1539620503.559,25.391,41.992,34.180,35.156,100.098,0
1539620503.563,23.926,41.016,31.250,29.785,54.688,0
1539620503.567,26.367,41.016,32.715,33.691,40.039,0
1539620503.571,26.367,35.156,36.621,36.133,-7.812,0
1539620503.575,25.391,44.922,41.016,34.180,23.438,0
1539620503.579,27.344,43.457,43.945,38.086,37.109,0
1539620503.583,26.855,31.250,45.898,39.062,-27.344,0
1539620503.587,25.391,37.598,43.457,33.691,-20.996,0
1539620503.591,26.855,45.898,40.527,36.133,14.160,0
1539620503.594,24.414,42.969,41.992,35.645,27.832,0
1539620503.598,23.926,35.645,40.039,32.715,22.461,0
1539620503.602,24.902,35.156,36.133,27.832,-30.762,0
1539620503.606,25.879,42.969,35.645,27.344,-3.906,0
1539620503.610,24.902,39.551,33.691,30.762,61.523,0
1539620503.614,24.414,19.531,28.320,25.391,43.457,0
1539620503.618,27.344,24.902,30.762,26.367,17.578,0
1539620503.622,26.367,44.922,33.691,34.180,1.465,0
1539620503.626,28.809,40.039,34.180,38.086,-5.371,0
1539620503.630,30.273,36.133,34.180,36.621,1.465,0
1539620503.633,30.762,41.504,34.180,39.551,52.734,0
1539620503.637,34.180,40.039,36.133,41.016,60.547,0
1539620503.641,35.156,36.621,36.133,47.363,37.109,0
1539620503.645,31.250,43.457,33.691,47.363,33.691,0
1539620503.649,35.156,49.805,36.621,38.086,43.945,0
1539620503.653,40.527,51.270,38.086,39.062,75.195,0
1539620503.657,35.156,41.504,33.691,41.992,74.219,0
1539620503.661,28.809,30.273,31.250,37.109,46.387,0
1539620503.665,27.832,46.387,32.715,32.715,62.012,0
1539620503.669,30.762,53.223,34.668,40.039,68.848,0
1539620503.673,34.180,40.527,33.691,37.109,39.551,0
1539620503.676,30.762,42.480,36.133,34.180,28.320,0
1539620503.680,25.879,41.992,36.133,36.133,69.336,0
1539620503.684,22.949,35.645,33.691,34.180,55.176,0
1539620503.688,22.461,39.551,35.156,38.086,58.594,0
1539620503.692,24.902,43.945,36.621,35.156,86.914,0
1539620503.696,22.461,41.504,36.621,31.738,7.812,0
1539620503.700,22.461,39.062,37.598,33.691,7.812,0
1539620503.704,27.344,34.180,35.156,34.180,43.945,0
1539620503.708,25.391,35.156,31.250,34.668,38.574,0
1539620503.712,21.973,47.852,33.691,29.785,39.062,0
1539620503.716,18.555,42.969,34.180,26.367,31.250,0
1539620503.719,20.508,33.691,34.180,23.438,17.578,0
1539620503.723,22.949,38.574,35.156,25.879,59.082,0
1539620503.727,22.461,41.992,31.738,26.855,20.996,0
1539620503.731,25.391,38.574,33.691,24.414,-31.738,0
1539620503.735,23.438,37.598,35.645,30.762,-21.484,0
1539620503.739,20.996,38.574,33.203,28.320,21.484,0
1539620503.743,26.367,38.086,33.203,22.461,37.598,0
1539620503.747,28.809,39.551,29.297,21.973,37.109,0
1539620503.751,22.949,37.109,27.832,21.484,35.645,0
1539620503.755,21.973,35.156,32.227,24.414,-35.645,0
1539620503.758,20.996,38.574,31.250,26.367,-2.441,0
1539620503.762,23.926,38.086,31.250,24.902,1.953,0
1539620503.766,26.367,28.320,34.180,24.414,14.160,0
1539620503.770,20.508,28.809,31.738,24.414,41.992,0
1539620503.774,21.973,40.527,29.785,29.297,55.176,0
1539620503.778,21.973,37.598,30.273,31.250,83.496,0
1539620503.782,23.438,32.715,31.738,26.367,62.012,0
1539620503.786,23.438,40.039,33.691,29.297,83.008,0
1539620503.790,20.020,37.109,35.156,36.133,63.477,0
1539620503.794,21.973,32.715,33.691,34.180,-12.207,0
1539620503.798,18.066,32.227,30.273,28.809,-8.301,0
1539620503.801,16.602,34.668,33.203,23.926,13.184,0
1539620503.805,19.531,42.969,31.250,22.461,47.363,0
1539620503.809,20.020,33.691,33.691,20.020,36.133,0
1539620503.813,17.090,27.832,33.691,12.207,-22.461,0
1539620503.817,14.160,47.363,29.785,7.324,1.465,0
1539620503.821,14.648,49.316,35.156,4.883,86.914,0
1539620503.825,16.602,41.992,35.645,5.371,21.484,0
1539620503.829,15.625,43.945,35.645,0.000,-2.441,1
1539620503.833,11.230,46.387,34.668,-5.371,43.457,0
1539620503.837,10.742,45.898,33.691,-5.371,56.152,0
1539620503.841,9.766,42.969,36.621,-2.930,85.449,0
1539620503.844,10.254,41.016,42.969,-1.465,3.906,0
1539620503.848,9.277,50.781,40.527,-9.277,12.695,0
1539620503.852,5.859,54.199,37.598,-10.254,53.711,0
1539620503.856,3.418,44.922,41.992,-13.184,63.965,0
1539620503.860,-1.953,51.758,41.016,-24.414,38.574,0
1539620503.864,-1.465,59.082,41.992,-20.996,10.254,0
1539620503.868,1.953,52.734,44.434,-15.137,37.598,0
1539620503.872,2.441,52.734,43.457,-21.484,31.738,0
1539620503.876,-2.441,56.152,45.410,-21.973,3.418,0
1539620503.880,-12.207,56.152,50.293,-25.879,22.949,0
1539620503.883,-19.043,60.059,50.293,-32.715,62.988,0
1539620503.887,-20.020,63.965,49.316,-31.250,102.539,0
1539620503.891,-18.555,60.547,47.852,-34.668,76.172,0
1539620503.895,-25.391,65.430,46.875,-45.898,67.383,0
1539620503.899,-31.250,64.941,49.805,-55.176,80.078,0
1539620503.903,-27.344,66.895,49.805,-53.223,25.879,0
1539620503.907,-30.762,81.543,44.922,-51.270,14.160,0
1539620503.911,-36.621,82.031,43.945,-55.176,42.480,0
1539620503.915,-37.109,79.590,49.316,-54.688,42.480,0
1539620503.919,-41.992,78.125,51.270,-58.105,18.066,0
1539620503.923,-48.340,80.566,47.852,-64.941,39.062,0
1539620503.926,-47.363,80.566,47.363,-66.895,71.289,0
1539620503.930,-44.434,80.566,48.828,-61.523,58.594,0
1539620503.934,-46.387,82.520,46.875,-61.523,37.109,0
1539620503.938,-48.828,77.148,42.969,-67.383,-0.977,0
1539620503.942,-45.898,75.684,42.480,-64.941,9.766,0
1539620503.946,-46.875,72.754,43.945,-66.895,8.301,0
1539620503.950,-47.852,81.055,41.992,-60.547,21.484,0
1539620503.954,-45.410,86.426,41.504,-58.105,91.797,0
1539620503.958,-41.504,75.195,40.039,-63.477,84.473,0
1539620503.962,-37.109,70.312,38.574,-56.641,56.641,0
1539620503.966,-39.062,72.754,39.551,-52.734,29.785,0
1539620503.969,-36.133,66.895,36.621,-48.828,-72.266,0
1539620503.973,-26.855,62.012,33.691,-40.039,-70.801,0
1539620503.977,-20.020,58.105,35.645,-31.738,-1.953,0
1539620503.981,-12.695,52.734,36.621,-20.020,51.270,0
1539620503.985,-8.301,51.758,34.668,-10.742,63.965,0
1539620503.989,-1.953,42.480,36.133,-5.859,40.527,0
1539620503.993,6.836,40.039,39.062,5.859,85.938,0
1539620503.997,11.719,45.898,36.621,12.207,50.781,0
1539620504.001,16.602,37.598,33.691,14.160,12.207,0
1539620504.005,20.508,29.785,37.109,22.949,52.734,0
1539620504.008,21.484,27.344,37.109,25.879,56.152,0
1539620504.012,25.879,26.367,35.645,27.344,11.719,0
1539620504.016,33.203,25.879,35.156,32.715,10.254,0
1539620504.020,38.574,24.902,32.715,35.645,88.379,0
1539620504.024,48.340,19.043,31.250,42.969,14.648,0
1539620504.028,57.617,13.672,29.785,48.828,-8.789,0
1539620504.032,58.105,9.766,27.832,49.805,57.129,0
1539620504.036,52.246,12.695,28.809,53.711,2.930,0
1539620504.040,52.246,19.043,29.785,53.223,62.012,0
1539620504.044,53.711,16.113,32.715,54.199,119.141,0
1539620504.048,57.129,7.812,35.156,61.523,43.457,0
1539620504.051,60.547,4.395,34.668,64.453,42.480,0
1539620504.055,62.012,10.254,34.668,66.895,47.363,0
1539620504.059,64.453,13.184,32.227,70.312,33.691,0
1539620504.063,64.941,13.672,29.785,67.383,34.668,0
1539620504.067,64.453,14.160,30.273,67.383,12.695,0
1539620504.071,67.383,21.973,26.367,71.289,-13.184,0
1539620504.075,67.383,26.367,26.367,68.848,19.531,0
1539620504.079,70.312,15.625,30.273,67.871,59.082,0
1539620504.083,71.777,19.531,28.320,67.383,84.473,0
1539620504.087,69.824,33.691,29.297,67.871,39.551,0
1539620504.091,69.336,22.949,30.762,62.012,-12.695,0
1539620504.094,64.453,16.113,31.738,62.500,41.016,0
1539620504.098,65.430,21.484,33.691,62.012,51.270,0
1539620504.102,67.383,20.508,32.715,64.941,33.203,0
1539620504.106,69.336,16.113,30.273,68.848,10.254,0
1539620504.110,73.242,22.949,30.762,68.359,19.531,0
1539620504.114,67.383,29.297,31.250,68.359,16.602,0
1539620504.118,62.012,29.785,30.273,65.918,15.625,0
1539620504.122,66.406,26.855,29.785,62.500,8.789,0
1539620504.126,63.477,23.438,27.832,64.941,62.500,0
1539620504.130,54.688,23.438,28.320,61.035,35.645,0
1539620504.133,56.152,28.320,31.738,62.012,13.184,0
1539620504.137,62.500,24.902,32.227,64.941,96.680,0
1539620504.141,65.430,12.207,33.691,64.941,71.777,0
1539620504.145,64.941,23.926,30.762,68.848,41.992,0
1539620504.149,62.012,31.250,29.785,64.453,65.430,0
1539620504.153,58.594,19.043,32.227,62.988,4.883,0
1539620504.157,59.082,20.508,32.715,63.965,34.180,0
1539620504.161,56.641,11.230,31.250,62.988,25.391,0
1539620504.165,54.688,8.301,26.855,60.059,-26.367,0
1539620504.169,58.105,19.043,24.902,57.129,47.363,0
1539620504.173,61.523,20.020,28.809,59.570,50.781,0
1539620504.176,61.523,24.902,33.691,62.988,27.344,0
1539620504.180,62.988,31.738,31.250,62.012,-1.465,0
1539620504.184,59.082,26.855,30.273,52.734,-8.301,0
1539620504.188,55.176,28.320,29.785,52.734,44.434,0
1539620504.192,57.129,39.062,29.297,59.082,52.734,0
1539620504.196,54.688,34.668,29.297,55.664,4.883,0
1539620504.200,53.711,35.645,27.832,52.246,-10.742,0
1539620504.204,52.734,38.574,28.809,55.176,-10.254,0
1539620504.208,55.664,39.551,29.297,58.105,20.020,0
1539620504.212,58.105,34.180,30.762,58.105,11.230,0
1539620504.216,60.547,25.879,32.227,58.594,1.953,0
1539620504.219,56.641,24.902,33.203,55.664,2.930,0
1539620504.223,51.270,21.973,32.715,58.105,5.859,0
1539620504.227,54.688,27.832,32.715,58.594,78.613,0
1539620504.231,52.734,36.621,31.738,61.523,125.000,0
1539620504.235,51.758,35.156,29.785,61.035,63.965,0
1539620504.239,53.223,34.180,29.785,52.734,15.137,0
1539620504.243,53.223,31.250,31.250,50.293,21.973,0
1539620504.247,53.711,28.320,32.227,51.758,37.598,0
1539620504.251,56.152,37.109,31.250,56.152,73.730,0
1539620504.255,55.176,36.133,30.762,54.199,99.609,0
1539620504.258,46.875,35.156,32.227,50.781,63.477,0
1539620504.262,45.898,37.598,34.668,53.223,68.848,0
1539620504.266,51.270,32.715,35.645,53.711,28.809,0
1539620504.270,50.781,31.250,33.203,51.270,20.020,0
1539620504.274,48.340,19.531,32.227,53.223,72.266,0
1539620504.278,49.316,24.414,30.273,53.711,72.754,0
1539620504.282,50.293,40.039,31.250,53.223,41.016,0
1539620504.286,49.316,32.227,33.203,49.316,-1.953,0
1539620504.290,49.805,35.156,34.180,50.293,66.895,0
1539620504.294,50.293,40.039,35.645,52.246,101.562,0
1539620504.298,48.340,34.180,36.133,52.246,29.785,0
1539620504.301,48.828,30.762,31.738,45.898,6.836,0
1539620504.305,49.316,31.738,29.297,43.945,65.918,0
1539620504.309,46.387,31.738,33.203,48.828,13.672,0
1539620504.313,42.480,26.367,34.180,45.898,-24.414,0
1539620504.317,37.598,24.902,32.227,41.504,40.039,0
1539620504.321,36.133,29.785,31.250,42.969,41.016,0
1539620504.325,31.738,39.551,32.227,41.016,22.461,0
1539620504.329,27.832,42.969,34.180,42.480,44.922,0
1539620504.333,32.715,32.715,37.598,42.969,-6.836,0
1539620504.337,32.227,27.832,37.109,39.551,-11.230,0
1539620504.341,35.645,38.574,35.645,41.992,1.953,0
1539620504.344,43.945,37.598,35.645,46.387,-2.441,0
1539620504.348,42.480,39.551,34.668,47.852,38.086,0
1539620504.352,41.016,48.828,33.203,46.875,42.969,0
1539620504.356,39.062,49.805,32.227,43.945,15.625,0
1539620504.360,31.250,45.898,33.203,44.922,6.836,0
1539620504.364,31.250,37.598,30.273,39.062,17.090,0
1539620504.368,33.203,41.016,31.250,34.668,66.895,0
1539620504.372,32.715,50.781,31.250,33.691,63.965,0
1539620504.376,34.180,43.457,31.250,34.180,28.320,0
1539620504.380,35.645,41.504,33.203,39.062,23.438,0
1539620504.383,35.645,42.480,30.273,40.039,54.199,0
1539620504.387,38.086,45.410,29.297,39.551,87.891,0
1539620504.391,34.180,39.062,27.832,40.527,17.578,0
1539620504.395,31.738,36.621,29.297,37.598,33.203,0
1539620504.399,37.598,43.945,34.668,40.527,87.891,0
1539620504.403,34.180,41.504,33.203,43.945,22.949,0
1539620504.407,23.926,32.227,29.297,38.574,66.895,0
1539620504.411,23.438,25.879,30.273,34.180,107.422,0
1539620504.415,25.879,42.969,32.715,33.203,71.777,0
1539620504.419,28.809,51.758,31.738,36.133,48.828,0
1539620504.423,27.344,44.434,27.832,38.574,38.086,0
1539620504.426,27.344,41.016,29.785,36.133,62.988,0
1539620504.430,30.273,40.039,32.227,35.156,51.758,0
1539620504.434,33.203,39.551,32.715,36.133,-8.789,0
1539620504.438,32.715,39.062,31.738,34.668,-7.812,0
1539620504.442,31.738,39.551,31.250,33.691,-16.602,0
1539620504.446,32.227,42.480,33.691,31.250,-2.930,0
1539620504.450,35.156,38.574,29.785,35.645,35.645,0
1539620504.454,37.109,29.785,29.785,37.598,21.973,0
1539620504.458,36.133,34.668,34.668,32.227,42.969,0
1539620504.462,34.668,43.945,33.203,37.109,30.762,0
1539620504.466,35.645,37.598,37.109,38.574,0.000,0
1539620504.469,37.598,30.273,37.109,41.504,10.742,0
1539620504.473,37.598,37.109,32.715,45.898,43.457,0
1539620504.477,28.809,36.133,39.062,42.480,28.320,0
1539620504.481,20.996,30.273,41.016,41.992,22.949,0
1539620504.485,26.367,40.527,40.527,45.410,72.266,0
1539620504.489,30.273,45.898,39.062,45.410,79.590,0
1539620504.493,27.832,43.457,38.086,42.480,53.711,0
1539620504.497,30.273,38.574,38.086,38.086,9.766,0
1539620504.501,35.156,32.715,36.133,40.527,-17.578,0
1539620504.505,31.250,29.785,36.621,40.527,-6.348,0
1539620504.508,29.297,35.645,35.156,33.691,22.949,0
1539620504.512,30.762,35.156,30.762,35.645,10.254,0
1539620504.516,29.297,28.809,30.762,32.227,3.906,0
1539620504.520,28.320,42.480,31.250,29.785,-0.488,0
1539620504.524,29.785,48.828,31.738,32.227,29.297,0
1539620504.528,31.250,38.086,35.645,31.250,54.199,0
1539620504.532,34.180,40.527,36.133,36.621,26.855,0
1539620504.536,39.551,50.293,37.109,43.457,36.621,0
1539620504.540,33.203,43.457,42.969,40.039,22.461,0
1539620504.544,17.578,38.574,44.922,31.250,55.664,0
1539620504.548,14.648,34.180,45.410,34.180,68.359,0
1539620504.551,17.090,32.227,43.945,33.203,36.133,0
1539620504.555,14.648,40.039,41.992,28.320,61.523,0
1539620504.559,15.137,32.227,45.898,29.297,64.941,0
1539620504.563,15.625,27.832,44.434,21.973,62.988,0
1539620504.567,16.602,34.668,40.527,24.902,32.715,0
1539620504.571,18.066,32.227,39.062,32.715,7.324,0
1539620504.575,18.066,25.879,39.062,31.250,17.578,0
1539620504.579,20.020,30.762,41.016,30.762,2.441,0
1539620504.583,22.949,29.297,41.992,33.203,3.418,0
1539620504.587,22.461,20.020,39.062,30.762,0.000,0
1539620504.591,21.973,24.902,35.156,27.344,24.902,0
1539620504.594,25.879,26.367,34.180,29.297,19.043,0
1539620504.598,26.855,26.367,35.645,30.273,29.297,0
1539620504.602,28.809,26.367,34.668,26.367,48.340,0
1539620504.606,29.785,22.461,33.691,32.715,21.973,0
1539620504.610,28.809,31.738,33.691,37.109,23.926,0
1539620504.614,30.762,36.133,32.715,34.180,13.672,0
1539620504.618,30.273,34.668,30.762,40.527,56.641,0
1539620504.622,30.762,33.203,32.227,39.062,80.078,0
1539620504.626,30.273,31.738,33.203,35.645,19.531,0
1539620504.630,35.156,37.598,32.227,41.016,-3.906,0
1539620504.633,38.574,40.039,32.227,41.016,15.625,0
1539620504.637,31.250,40.039,30.762,40.527,21.973,0
1539620504.641,28.809,33.691,28.809,36.133,50.293,0
1539620504.645,32.715,40.039,34.180,38.574,54.199,0
1539620504.649,32.227,38.574,38.574,40.039,11.230,0
1539620504.653,27.344,36.133,37.109,36.133,6.836,0
1539620504.657,26.855,50.293,37.598,39.551,44.434,0
1539620504.661,25.879,43.945,38.086,39.551,61.035,0
1539620504.665,28.320,34.668,37.598,35.645,37.598,0
1539620504.669,29.297,41.992,37.598,39.062,54.199,0
1539620504.673,25.391,45.410,34.668,37.598,60.547,0
1539620504.676,25.391,39.551,32.227,32.715,48.340,0
1539620504.680,26.367,39.551,33.203,37.109,76.660,0
1539620504.684,36.133,41.016,36.133,38.574,91.797,0
1539620504.688,40.039,35.156,35.156,39.062,45.410,0
1539620504.692,28.809,38.574,32.227,35.156,40.527,0
1539620504.696,25.391,42.969,30.273,29.297,99.609,0
1539620504.700,28.809,51.270,29.297,33.203,30.273,0
1539620504.704,25.879,54.199,28.809,32.227,-15.625,0
1539620504.708,25.391,44.434,31.738,26.855,22.461,0
1539620504.712,29.785,41.016,34.668,30.273,41.504,0
1539620504.716,30.762,43.945,32.227,29.785,44.434,0
1539620504.719,31.738,39.551,30.762,29.297,-7.324,0
1539620504.723,32.715,34.668,35.156,31.250,-53.711,0
1539620504.727,31.250,38.086,37.109,36.621,-1.953,0
1539620504.731,31.738,41.016,34.180,35.156,31.738,0
1539620504.735,36.621,37.109,32.715,32.227,24.902,0
1539620504.739,37.109,27.344,33.203,33.203,-7.812,0
1539620504.743,35.645,36.133,31.738,27.832,16.602,0
1539620504.747,38.574,49.805,32.715,32.715,56.152,0
1539620504.751,41.504,45.410,31.250,39.551,8.301,0
1539620504.755,39.062,37.109,30.273,38.086,-28.809,0
1539620504.758,36.133,41.016,31.738,34.668,11.230,0
1539620504.762,36.133,45.898,30.273,33.691,36.621,0
1539620504.766,36.133,38.574,32.227,33.203,-13.672,0
1539620504.770,37.109,35.645,32.715,35.645,52.734,0
1539620504.774,39.551,36.621,32.227,38.574,98.145,0
1539620504.778,37.109,34.668,29.785,34.668,29.297,0
1539620504.782,35.156,27.344,30.762,41.992,62.012,0
1539620504.786,39.551,16.113,36.621,41.504,58.105,0
1539620504.790,43.945,27.344,33.691,33.691,11.719,0
1539620504.794,41.992,38.574,32.227,41.016,51.758,0
1539620504.798,39.551,24.414,32.227,41.504,46.387,0
1539620504.801,41.504,24.414,34.668,41.992,71.289,0
1539620504.805,39.062,26.367,35.645,39.551,41.992,0
1539620504.809,34.180,23.438,34.180,40.039,-19.531,0
1539620504.813,33.203,30.762,34.180,39.551,30.273,0
1539620504.817,34.668,31.738,32.715,35.156,48.340,0
1539620504.821,35.156,33.203,31.738,37.109,21.973,0
1539620504.825,34.180,36.621,31.250,39.551,38.086,0
1539620504.829,33.203,26.367,30.273,36.621,43.457,0
1539620504.833,36.621,25.879,33.203,36.133,21.973,0
1539620504.837,33.203,40.039,29.297,30.762,6.836,0
1539620504.841,24.414,39.551,25.879,27.832,25.879,0
1539620504.844,21.973,33.691,34.668,29.785,36.133,0
1539620504.848,22.461,32.715,38.086,28.320,63.477,0
1539620504.852,23.438,32.227,37.109,29.785,68.848,0
1539620504.856,19.043,26.367,36.621,32.227,76.660,0
1539620504.860,16.602,27.832,36.133,27.832,50.781,0
1539620504.864,19.531,27.832,37.109,28.809,16.113,0
1539620504.868,20.996,25.879,37.109,29.785,41.016,0
1539620504.872,20.996,29.297,36.621,28.320,52.734,0
1539620504.876,24.414,27.344,34.180,29.785,21.973,0
1539620504.880,27.344,32.715,31.738,30.273,64.941,0
1539620504.883,26.367,34.180,34.668,33.203,40.527,0
1539620504.887,29.785,27.344,41.504,35.156,13.184,0
1539620504.891,31.250,20.996,42.969,31.738,51.270,0
1539620504.895,28.320,31.738,36.133,28.809,25.879,0
1539620504.899,27.832,38.574,33.691,31.250,27.832,0
1539620504.903,23.926,30.762,33.691,32.715,10.254,0
1539620504.907,25.391,22.949,33.203,29.785,2.441,0
1539620504.911,24.902,25.391,35.156,32.715,65.430,0
1539620504.915,25.391,32.227,35.156,34.180,21.973,0
1539620504.919,41.016,41.016,33.203,39.062,11.230,0
1539620504.923,40.527,32.227,30.762,44.434,41.016,0
1539620504.926,28.320,20.996,31.250,48.828,12.207,0
1539620504.930,31.250,43.945,30.273,51.758,16.113,0
1539620504.934,24.414,33.203,9.277,29.297,28.320,0
1539620504.938,16.113,17.090,2.441,14.160,22.949,0
1539620504.942,8.789,38.086,28.320,18.555,37.109,0
1539620504.946,14.160,38.574,25.391,19.043,31.738,0
1539620504.950,23.926,3.418,7.812,16.602,57.129,0
1539620504.954,14.160,22.949,9.766,21.973,80.566,0
1539620504.958,11.230,57.617,19.531,25.879,47.363,0
1539620504.962,9.277,45.410,20.996,16.602,-19.043,0
1539620504.966,10.254,40.527,27.832,26.855,-11.719,0
1539620504.969,20.020,41.992,25.879,42.480,48.828,0
1539620504.973,28.809,37.109,20.020,46.387,29.297,0
1539620504.977,38.574,1.953,22.949,50.293,5.371,0
1539620504.981,63.965,1.953,2.441,60.059,0.000,0
1539620504.985,79.590,27.832,-0.488,65.918,41.016,0
1539620504.989,74.219,44.922,27.832,79.590,19.531,0
1539620504.993,89.355,31.738,41.992,98.145,-12.207,0
1539620504.997,69.336,-23.438,-8.301,81.055,31.250,0
1539620505.001,45.898,12.207,-14.648,71.289,58.594,0
1539620505.005,55.664,31.738,26.367,77.637,0.000,0
1539620505.008,62.500,40.527,27.344,82.520,-21.973,0
1539620505.012,66.895,52.246,27.832,80.078,6.836,0
1539620505.016,71.777,37.598,23.438,85.449,31.738,0
1539620505.020,77.148,35.156,18.555,93.750,36.621,0
1539620505.024,83.008,24.902,18.066,95.703,-40.039,0
1539620505.028,82.520,20.508,19.043,92.773,-7.812,0
1539620505.032,82.520,31.250,19.531,101.074,25.879,0
1539620505.036,90.332,24.902,20.508,107.910,24.902,0
1539620505.040,89.355,19.043,20.996,109.375,51.758,0
1539620505.044,84.961,12.207,19.531,108.398,18.066,0
1539620505.048,84.961,11.230,18.066,105.957,-7.812,0
1539620505.051,84.473,14.160,17.578,104.004,1.953,0
1539620505.055,88.379,13.184,21.973,106.445,-16.113,0
1539620505.059,81.543,17.090,23.926,110.840,36.621,0
1539620505.063,77.148,14.648,23.438,106.445,62.500,0
1539620505.067,77.637,11.719,24.902,104.004,41.016,0
1539620505.071,77.148,10.742,22.949,102.051,55.664,0
1539620505.075,81.543,18.555,23.438,96.191,44.922,0
1539620505.079,78.125,23.438,27.344,96.191,-12.695,0
1539620505.083,73.242,20.996,25.879,94.727,17.578,0
1539620505.087,77.148,19.043,24.414,96.680,95.703,0
1539620505.091,77.637,22.461,24.902,94.727,79.102,0
1539620505.094,76.660,25.879,21.973,89.355,27.832,0
1539620505.098,74.707,23.438,22.461,89.355,4.883,0
1539620505.102,67.871,27.344,25.391,88.379,15.625,0
1539620505.106,64.941,32.227,25.879,86.426,33.691,0
1539620505.110,61.523,18.066,24.902,82.031,48.828,0
1539620505.114,61.523,10.742,23.926,80.566,70.312,0
1539620505.118,62.500,21.973,23.438,78.125,33.203,0
1539620505.122,60.059,37.598,24.902,78.613,2.441,0
1539620505.126,60.059,33.691,23.926,78.613,41.016,0
1539620505.130,61.523,29.297,21.484,79.102,26.367,0
1539620505.133,56.641,37.598,18.555,75.684,70.801,0
1539620505.137,56.152,37.109,17.090,74.707,57.129,0
1539620505.141,59.570,33.691,20.996,73.242,60.059,0
1539620505.145,60.059,26.855,26.855,72.266,64.941,2
1539620505.149,53.223,30.273,27.832,72.266,21.484,0
1539620505.153,48.340,41.016,25.391,67.871,61.523,0
1539620505.157,49.316,31.250,25.391,68.848,60.059,0
1539620505.161,48.828,25.391,26.367,64.453,72.266,0
1539620505.165,48.828,36.621,24.414,58.105,35.156,0
1539620505.169,49.316,35.156,25.391,62.988,33.203,0
1539620505.173,48.340,30.762,28.320,66.406,58.105,0
1539620505.176,45.898,34.668,27.832,64.941,27.344,0
1539620505.180,41.016,35.645,26.367,54.199,62.012,0
1539620505.184,41.504,33.203,25.391,49.805,97.168,0
1539620505.188,43.945,29.297,27.832,55.176,49.805,0
1539620505.192,41.504,28.320,29.785,51.758,52.734,0
1539620505.196,39.551,29.785,29.297,47.852,-5.371,0
1539620505.200,37.109,31.738,26.367,46.387,6.348,0
1539620505.204,33.691,23.926,28.809,41.992,89.355,0
1539620505.208,34.668,20.508,31.738,39.551,31.738,0
1539620505.212,34.668,31.738,31.250,41.504,45.410,0
1539620505.216,31.250,31.738,30.762,39.062,79.102,0
1539620505.219,30.762,26.367,26.855,34.668,35.645,0
1539620505.223,32.227,33.691,28.809,39.062,5.859,0
1539620505.227,29.785,42.480,33.203,39.062,30.762,0
1539620505.231,28.809,40.527,32.227,38.086,36.621,0
1539620505.235,27.344,32.715,28.809,39.551,43.945,0
1539620505.239,29.785,33.691,28.809,36.133,71.777,0
1539620505.243,27.832,40.039,31.250,34.180,31.250,0
1539620505.247,23.926,36.133,30.273,32.227,-18.555,0
1539620505.251,21.973,34.180,31.738,28.809,9.766,0
1539620505.255,19.043,40.527,32.715,28.809,79.102,0
1539620505.258,20.508,43.457,29.785,28.809,95.215,0
1539620505.262,20.996,33.691,32.715,30.762,63.965,0
1539620505.266,19.531,32.715,37.598,29.297,68.848,0
1539620505.270,20.020,42.969,39.062,24.902,45.410,0
1539620505.274,20.508,41.016,39.062,24.414,8.789,0
1539620505.278,14.648,36.621,35.156,19.531,60.547,0
1539620505.282,9.766,35.645,34.180,18.555,36.621,0
1539620505.286,11.230,38.574,37.598,22.461,23.926,0
1539620505.290,14.648,38.574,39.551,20.508,55.664,0
1539620505.294,16.113,33.203,39.062,13.672,27.344,0
1539620505.298,9.766,31.250,37.109,9.277,20.020,0
1539620505.301,7.812,34.668,37.598,8.301,29.785,0
1539620505.305,13.184,43.457,40.039,14.160,28.320,0
1539620505.309,10.254,33.691,40.527,14.648,40.039,0
1539620505.313,9.766,31.738,38.086,15.625,94.238,0
1539620505.317,7.324,44.434,37.598,14.160,56.641,0
1539620505.321,7.324,38.086,41.992,15.137,10.742,0
1539620505.325,8.301,41.992,40.527,13.672,44.922,0
1539620505.329,4.395,40.527,42.480,4.395,21.973,0
1539620505.333,5.371,36.621,44.922,4.883,34.668,0
1539620505.337,8.301,39.551,43.457,3.906,27.344,0
1539620505.341,6.348,39.551,43.457,3.418,-17.090,0
1539620505.344,2.930,41.992,45.410,4.395,12.695,0
1539620505.348,5.371,36.621,44.922,2.930,6.836,0
1539620505.352,3.906,29.785,41.016,7.324,-26.367,0
1539620505.356,0.000,26.367,41.992,0.488,39.551,0
1539620505.360,3.418,36.133,40.527,-5.859,58.105,0
1539620505.364,0.977,41.016,39.062,2.930,-6.348,0
1539620505.368,-2.930,36.133,44.434,2.441,47.363,0
1539620505.372,-2.441,36.133,43.945,0.000,64.941,0
1539620505.376,1.953,42.480,44.434,2.930,12.207,0
1539620505.380,3.906,49.316,46.387,10.254,13.672,0
1539620505.383,1.465,45.898,46.387,7.324,3.906,0
1539620505.387,2.930,45.410,43.457,3.906,-17.578,0
1539620505.391,4.395,46.875,41.992,9.277,43.945,0
1539620505.395,3.418,41.992,41.992,5.371,63.477,0
1539620505.399,4.395,26.855,41.504,-3.418,1.953,0
1539620505.403,2.930,27.344,40.527,-3.418,27.344,0
1539620505.407,3.906,51.270,40.527,2.930,41.504,0
1539620505.411,8.301,50.293,41.504,8.301,89.355,0
1539620505.415,3.906,40.039,41.992,6.836,144.043,0
1539620505.419,2.930,37.109,41.504,8.789,82.520,0
1539620505.423,2.441,40.039,40.527,6.348,33.691,0
1539620505.426,3.906,37.109,40.527,3.418,41.504,0
1539620505.430,8.301,39.062,39.551,2.441,65.430,0
1539620505.434,3.906,37.598,39.551,-0.488,65.430,0
1539620505.438,0.488,27.832,40.527,7.324,34.668,0
1539620505.442,2.441,31.738,41.016,12.695,25.879,0
1539620505.446,2.930,23.438,37.109,1.953,23.438,0
1539620505.450,7.812,33.203,38.086,5.371,30.273,0
1539620505.454,8.301,50.781,37.598,16.602,96.191,0
1539620505.458,2.441,39.062,32.715,7.812,13.672,0
1539620505.462,10.742,40.039,32.715,11.230,-33.203,0
1539620505.466,12.207,48.340,37.109,19.531,47.363,0
1539620505.469,10.254,43.457,41.992,22.461,64.453,0
1539620505.473,15.625,37.598,37.109,22.949,15.625,0
1539620505.477,14.648,41.016,35.645,16.602,3.418,0
1539620505.481,17.090,46.387,43.945,23.438,24.414,0
1539620505.485,23.438,40.527,45.410,29.297,12.207,0
1539620505.489,21.484,29.297,45.898,19.531,17.578,0
1539620505.493,17.578,25.879,45.410,16.602,50.781,0
1539620505.497,19.043,41.504,40.039,19.531,22.949,0
1539620505.501,25.879,45.898,41.992,25.879,-8.789,0
1539620505.505,26.855,41.016,42.480,27.344,-11.719,0
1539620505.508,22.949,44.434,42.969,23.438,52.734,0
1539620505.512,20.996,45.898,41.504,24.414,47.852,0
1539620505.516,25.391,36.621,36.133,29.297,25.879,0
1539620505.520,24.902,33.691,37.109,25.879,41.504,0
1539620505.524,20.508,43.945,38.086,23.438,-15.625,0
1539620505.528,20.996,47.852,39.551,26.367,-26.367,0
1539620505.532,19.043,41.992,40.527,28.809,35.645,0
1539620505.536,18.555,30.273,42.480,29.785,29.297,0
1539620505.540,17.578,39.062,40.039,23.926,-15.137,0
1539620505.544,19.531,56.152,37.109,27.832,43.457,0
1539620505.548,20.508,48.340,41.992,32.227,109.863,0
1539620505.551,21.973,39.551,38.574,31.738,62.012,0
1539620505.555,26.855,46.387,36.133,33.203,18.555,0
1539620505.559,28.809,46.875,40.527,34.180,32.227,0
1539620505.563,31.738,45.898,39.062,38.086,73.730,0
1539620505.567,31.250,46.387,33.691,36.621,64.453,0
1539620505.571,28.320,51.758,32.227,30.273,41.504,0
1539620505.575,29.785,51.758,34.180,35.156,-6.836,0
1539620505.579,32.715,40.039,38.574,35.645,-28.809,0
1539620505.583,28.809,40.527,39.551,31.738,34.180,0
1539620505.587,29.785,51.758,35.156,31.738,118.164,0
1539620505.591,29.297,51.270,35.156,32.715,84.961,0
1539620505.594,27.832,36.133,36.621,34.668,-12.207,0
1539620505.598,28.320,30.762,34.668,31.250,1.465,0
1539620505.602,20.508,44.922,35.156,27.832,10.254,0
1539620505.606,24.902,50.781,39.062,25.879,-19.043,0
1539620505.610,28.809,47.852,39.551,27.344,-10.254,0
1539620505.614,28.809,48.828,37.109,32.715,29.297,0
1539620505.618,34.180,53.223,37.109,35.156,12.695,0
1539620505.622,33.691,49.805,37.109,27.344,31.738,0
1539620505.626,30.273,41.992,35.645,24.902,25.879,0
1539620505.630,33.691,45.410,33.691,31.250,53.223,0
1539620505.633,33.691,47.363,34.180,34.668,48.340,0
1539620505.637,29.297,39.062,34.668,31.250,26.855,0
1539620505.641,28.809,28.320,36.133,22.949,89.844,0
1539620505.645,26.367,39.551,38.574,27.832,103.027,0
