timestamps,TP9,AF7,AF8,TP10,Right AUX,Marker0
1539618581.387,27.832,40.039,35.645,19.043,10.742,0
1539618581.391,35.645,38.574,36.621,22.461,22.949,0
1539618581.395,26.855,41.016,36.621,21.484,2.930,0
1539618581.399,17.578,36.621,33.691,17.578,40.527,0
1539618581.403,18.066,28.809,35.156,18.555,69.336,0
1539618581.407,14.648,25.879,38.086,20.508,15.137,0
1539618581.411,26.855,33.203,38.086,14.160,0.488,0
1539618581.415,31.738,40.039,34.668,15.625,11.719,0
1539618581.419,24.902,37.109,31.738,18.555,20.508,0
1539618581.423,26.367,23.926,41.016,22.461,47.363,0
1539618581.426,32.227,30.273,45.410,25.391,70.801,0
1539618581.430,35.156,36.133,37.109,23.438,9.766,0
1539618581.434,41.016,33.691,34.668,26.367,8.789,0
1539618581.438,44.922,36.621,40.527,30.273,34.180,0
1539618581.442,36.133,34.180,32.715,20.996,51.758,0
1539618581.446,36.133,37.109,33.203,19.043,27.344,0
1539618581.450,36.133,35.156,36.621,28.809,-26.367,0
1539618581.454,36.621,39.551,31.250,27.344,19.043,0
1539618581.458,34.668,43.457,36.133,24.902,20.020,0
1539618581.462,30.762,35.645,37.109,20.508,-3.906,0
1539618581.466,31.738,30.273,37.109,20.996,1.953,0
1539618581.469,35.156,33.691,42.969,28.809,-13.184,0
1539618581.473,33.203,40.527,35.645,20.996,6.836,0
1539618581.477,31.738,40.527,24.414,19.043,48.340,0
1539618581.481,28.320,40.039,27.344,27.344,50.293,0
1539618581.485,33.691,41.504,34.180,30.273,45.898,0
1539618581.489,33.691,42.480,32.227,25.391,34.180,0
1539618581.493,31.738,41.016,29.297,20.508,65.430,0
1539618581.497,27.832,35.156,33.691,18.066,38.086,0
1539618581.501,29.785,31.250,40.527,29.297,17.578,0
1539618581.505,40.039,40.039,46.387,43.945,44.922,0
1539618581.508,27.832,37.598,37.598,33.203,95.703,0
1539618581.512,32.227,22.949,38.086,25.391,131.836,0
1539618581.516,36.133,31.738,43.457,32.715,121.094,0
1539618581.520,20.020,36.133,34.180,29.785,61.035,0
1539618581.524,19.043,33.691,27.344,21.484,30.762,0
1539618581.528,28.809,37.598,31.738,21.973,69.336,0
1539618581.532,34.180,46.875,33.691,31.250,81.055,0
1539618581.536,36.133,48.340,30.273,34.668,32.227,0
1539618581.540,32.227,34.180,31.738,31.738,57.129,0
1539618581.544,37.598,31.738,33.203,35.645,88.379,0
1539618581.548,39.062,31.250,34.668,36.133,17.578,0
1539618581.551,41.992,29.297,36.133,33.203,-0.977,0
1539618581.555,44.922,38.574,37.598,31.250,64.941,0
1539618581.559,35.645,36.133,31.738,33.203,39.551,0
1539618581.563,31.250,32.227,25.879,27.344,-6.836,0
1539618581.567,32.227,33.691,33.203,26.855,65.430,0
1539618581.571,29.785,34.180,39.062,33.691,62.500,0
1539618581.575,44.434,31.250,39.551,37.598,-10.742,0
1539618581.579,31.738,19.043,38.574,33.203,30.273,0
1539618581.583,16.113,20.020,35.156,23.438,38.574,0
1539618581.587,25.879,40.039,31.250,24.902,21.973,0
1539618581.591,26.367,46.875,27.832,25.391,45.898,0
1539618581.594,23.926,36.133,28.320,21.973,33.691,0
1539618581.598,26.367,31.250,36.133,32.227,38.574,0
1539618581.602,38.574,25.391,41.504,39.551,-0.977,0
1539618581.606,47.363,37.109,37.109,31.250,-29.297,0
1539618581.610,40.527,47.852,33.691,28.809,-40.527,0
1539618581.614,37.598,40.039,31.250,34.180,-3.418,0
1539618581.618,45.898,36.621,26.855,42.480,20.508,0
1539618581.622,55.664,44.434,30.762,52.734,42.480,0
1539618581.626,69.824,45.410,33.203,55.176,43.457,0
1539618581.630,55.664,34.180,26.367,47.363,27.344,0
1539618581.633,45.898,35.156,25.879,45.898,41.504,0
1539618581.637,49.805,33.691,27.832,45.898,-16.602,0
1539618581.641,47.363,26.855,24.414,42.480,-33.203,0
1539618581.645,54.199,27.344,28.809,51.758,24.414,0
1539618581.649,59.570,26.855,29.297,49.805,73.242,0
1539618581.653,62.500,33.691,26.855,51.270,25.879,0
1539618581.657,65.430,44.922,36.133,64.453,-23.438,0
1539618581.661,66.406,44.434,42.969,64.453,36.621,0
1539618581.665,58.594,31.738,42.480,60.059,92.773,0
1539618581.669,49.316,27.344,31.250,50.293,76.660,0
1539618581.673,52.246,37.109,17.578,48.828,55.176,0
1539618581.676,57.129,38.574,24.902,50.781,34.668,0
1539618581.680,53.223,41.992,37.109,51.758,21.484,0
1539618581.684,58.105,44.434,34.180,47.852,57.617,0
1539618581.688,61.523,37.598,37.109,48.340,61.523,0
1539618581.692,57.129,30.762,40.039,45.410,53.711,0
1539618581.696,51.758,40.039,31.738,36.133,42.969,0
1539618581.700,46.875,44.922,29.297,37.598,70.312,0
1539618581.704,47.363,42.480,41.016,47.363,67.383,0
1539618581.708,50.781,47.363,51.758,52.246,29.297,0
1539618581.712,50.781,42.480,47.852,47.852,32.227,0
1539618581.716,46.387,32.227,40.039,45.410,48.340,0
1539618581.719,43.457,35.156,33.691,40.527,8.301,0
1539618581.723,41.504,41.992,30.762,34.180,-28.809,0
1539618581.727,42.480,38.574,36.621,35.645,5.859,0
1539618581.731,49.316,32.227,35.156,40.527,24.414,0
1539618581.735,43.945,29.785,31.250,42.969,19.531,0
1539618581.739,45.898,31.250,33.203,47.852,29.297,0
1539618581.743,54.688,40.527,32.227,50.781,66.406,0
1539618581.747,57.617,41.504,31.738,50.293,43.457,0
1539618581.751,62.500,39.062,35.156,59.570,14.160,0
1539618581.755,60.547,38.574,38.086,56.641,17.578,0
1539618581.758,50.781,34.668,32.715,45.410,4.883,0
1539618581.762,54.199,36.133,30.273,49.316,4.395,0
1539618581.766,44.434,35.645,35.156,45.898,28.809,0
1539618581.770,37.598,35.156,37.109,41.016,29.297,0
1539618581.774,43.945,30.273,34.180,43.945,14.160,0
1539618581.778,40.527,35.645,32.227,44.434,13.672,0
1539618581.782,52.734,44.922,34.668,46.387,-34.668,0
1539618581.786,55.176,40.527,33.691,47.852,-6.836,0
1539618581.790,42.480,38.574,30.762,44.922,53.223,0
1539618581.794,39.551,40.527,34.180,38.086,36.621,0
1539618581.798,40.039,41.016,35.645,35.156,47.852,0
1539618581.801,40.527,32.227,32.227,33.691,45.898,0
1539618581.805,28.809,26.367,34.180,34.180,34.180,0
1539618581.809,33.691,35.645,39.062,41.504,17.578,0
1539618581.813,38.574,39.551,37.598,41.016,41.016,0
1539618581.817,25.391,33.203,33.691,32.227,63.477,0
1539618581.821,33.203,36.621,41.504,37.598,72.266,0
1539618581.825,35.645,36.133,45.410,45.410,57.129,0
1539618581.829,28.809,30.273,38.086,39.062,40.039,0
1539618581.833,24.414,35.156,37.598,30.762,47.852,0
1539618581.837,22.461,42.969,41.992,35.156,42.480,0
1539618581.841,28.320,39.062,46.875,36.621,62.500,0
1539618581.844,33.203,35.156,45.898,35.156,88.379,0
1539618581.848,36.621,40.039,39.062,35.645,73.242,0
1539618581.852,36.133,42.480,41.504,40.527,41.504,0
1539618581.856,40.527,36.133,43.945,43.457,37.598,0
1539618581.860,34.180,36.133,40.039,30.762,40.039,0
1539618581.864,24.414,37.598,34.668,28.320,4.395,0
1539618581.868,31.738,38.086,34.180,27.832,-31.250,0
1539618581.872,33.691,46.387,39.551,24.414,-50.293,0
1539618581.876,28.320,41.016,40.039,33.691,-31.250,0
1539618581.880,26.367,37.109,38.574,28.809,29.785,0
1539618581.883,29.785,47.363,43.457,30.273,54.688,0
1539618581.887,28.809,40.039,39.551,26.855,45.410,0
1539618581.891,21.973,26.367,30.273,15.625,41.016,0
1539618581.895,20.508,33.203,36.621,18.066,-10.742,0
1539618581.899,35.156,42.480,47.363,26.855,0.000,0
1539618581.903,33.691,44.922,41.016,25.391,15.137,0
1539618581.907,22.461,44.434,33.691,19.043,38.086,0
1539618581.911,33.691,39.062,29.297,19.531,1.953,0
1539618581.915,30.762,36.621,28.809,19.043,-11.230,0
1539618581.919,22.949,33.691,34.668,18.555,60.547,0
1539618581.923,34.180,36.621,39.551,28.809,53.711,0
1539618581.926,40.039,47.852,39.062,32.227,41.504,0
1539618581.930,26.367,49.805,36.621,13.184,-1.465,0
1539618581.934,10.254,48.828,35.645,1.465,14.648,0
1539618581.938,5.371,50.781,37.109,-3.418,70.801,0
1539618581.942,-5.371,52.734,37.598,-15.137,65.430,0
1539618581.946,-7.812,56.152,33.691,-18.555,37.109,0
1539618581.950,-11.719,56.152,36.133,-23.438,37.109,0
1539618581.954,-17.090,56.641,35.645,-28.809,30.273,0
1539618581.958,-19.043,60.547,31.738,-39.062,12.695,0
1539618581.962,-23.438,62.012,29.297,-43.457,63.477,0
1539618581.966,-22.461,62.500,31.250,-39.551,-4.883,0
1539618581.969,-27.832,61.523,33.203,-41.504,-83.496,0
1539618581.973,-24.902,61.523,30.762,-39.062,-7.812,0
1539618581.977,-7.324,58.594,36.621,-29.297,40.039,0
1539618581.981,0.488,57.617,37.109,-24.902,57.617,0
1539618581.985,-4.395,59.570,34.668,-21.484,49.316,0
1539618581.989,-4.883,55.664,37.598,-12.695,-1.465,0
1539618581.993,-6.348,48.340,31.738,-15.137,4.883,0
1539618581.997,2.441,52.734,32.227,-9.766,-2.441,0
1539618582.001,11.719,54.688,34.180,-0.977,-12.695,0
1539618582.005,10.742,53.223,37.109,2.441,-6.836,0
1539618582.008,20.508,62.012,38.574,5.859,27.344,0
1539618582.012,27.344,61.523,29.297,10.742,87.402,0
1539618582.016,23.926,52.734,27.344,10.254,53.223,0
1539618582.020,24.414,49.316,27.344,3.418,57.617,0
1539618582.024,29.297,54.688,34.668,0.977,39.062,0
1539618582.028,31.250,57.617,36.133,10.254,9.277,0
1539618582.032,26.855,47.852,35.645,16.602,44.434,0
1539618582.036,27.344,42.969,39.062,12.207,5.371,0
1539618582.040,29.297,44.434,34.180,9.766,-2.441,0
1539618582.044,25.879,56.152,39.551,11.719,31.738,0
1539618582.048,37.109,63.477,50.293,19.043,60.547,0
1539618582.051,34.668,53.711,42.480,13.672,62.012,0
1539618582.055,21.973,45.898,32.715,10.742,64.941,0
1539618582.059,24.902,44.922,35.645,21.484,64.453,0
1539618582.063,29.297,48.828,42.969,29.297,21.484,0
1539618582.067,37.598,47.852,46.387,33.691,-2.441,0
1539618582.071,31.738,42.969,40.039,26.855,46.387,0
1539618582.075,18.066,40.527,35.645,19.531,56.152,0
1539618582.079,24.902,45.898,39.062,26.855,11.719,0
1539618582.083,21.973,42.480,40.039,20.508,21.973,0
1539618582.087,18.555,41.016,38.086,14.160,33.691,0
1539618582.091,26.367,45.410,30.762,20.508,73.242,0
1539618582.094,38.086,35.645,28.320,21.484,46.387,0
1539618582.098,26.855,44.434,36.621,19.531,17.578,0
1539618582.102,13.672,58.105,34.668,12.695,72.754,0
1539618582.106,18.555,48.340,27.344,5.371,18.555,0
1539618582.110,23.438,41.016,34.668,17.090,7.324,0
1539618582.114,19.043,38.086,35.645,19.531,26.855,0
1539618582.118,22.461,46.387,34.668,20.020,-36.621,0
1539618582.122,23.438,46.387,33.203,21.484,3.418,0
1539618582.126,19.043,32.715,32.227,22.461,-4.883,0
1539618582.130,25.879,37.598,43.457,37.109,31.250,0
1539618582.133,31.250,48.340,43.945,40.039,86.426,0
1539618582.137,21.973,39.551,32.715,27.344,26.367,0
1539618582.141,19.043,37.109,36.621,23.438,29.297,0
1539618582.145,26.855,40.039,42.969,29.297,23.926,0
1539618582.149,29.297,40.039,35.156,30.273,10.254,0
1539618582.153,36.133,41.016,36.133,28.809,23.926,0
1539618582.157,38.574,37.598,37.598,30.273,10.742,0
1539618582.161,22.949,41.504,29.785,20.508,52.734,0
1539618582.165,26.855,42.969,31.250,12.207,104.004,0
1539618582.169,38.086,31.250,35.156,11.719,62.012,0
1539618582.173,39.551,33.203,36.621,20.508,46.875,0
1539618582.176,35.156,43.457,34.668,14.160,47.852,0
1539618582.180,22.949,44.922,28.809,0.977,37.598,0
1539618582.184,15.137,45.410,28.809,6.836,83.008,0
1539618582.188,17.578,44.434,29.785,10.742,100.586,0
1539618582.192,21.484,46.875,25.879,12.695,66.895,0
1539618582.196,24.414,49.316,21.484,13.184,16.113,0
1539618582.200,19.043,47.363,23.438,10.742,5.859,0
1539618582.204,19.531,48.828,29.297,15.625,27.344,0
1539618582.208,24.414,51.270,31.738,17.090,39.551,0
1539618582.212,23.926,46.387,24.414,12.695,62.988,0
1539618582.216,32.227,44.922,24.902,15.625,23.438,0
1539618582.219,37.109,45.410,23.926,16.602,34.180,0
1539618582.223,42.969,50.781,17.090,19.531,59.082,0
1539618582.227,57.617,52.734,26.367,27.344,20.020,0
1539618582.231,38.574,40.527,35.645,25.879,36.621,0
1539618582.235,32.227,38.574,32.715,26.367,76.172,0
1539618582.239,40.039,44.922,33.203,26.367,76.660,0
1539618582.243,25.879,42.480,26.367,20.996,9.277,0
1539618582.247,33.691,42.969,29.297,30.762,-2.441,0
1539618582.251,42.480,45.410,39.062,38.086,43.457,0
1539618582.255,37.109,41.504,34.180,33.691,4.395,0
1539618582.258,32.715,44.922,26.367,26.367,-26.855,0
1539618582.262,41.504,35.645,27.344,25.879,33.691,0
1539618582.266,37.598,28.320,31.250,23.438,38.086,0
1539618582.270,26.855,36.621,30.762,18.066,32.227,0
1539618582.274,34.180,36.621,31.250,22.461,39.551,0
1539618582.278,34.668,24.902,37.109,29.297,-0.488,0
1539618582.282,36.621,28.320,38.086,27.832,32.715,0
1539618582.286,36.621,35.645,34.668,30.273,9.277,0
1539618582.290,40.527,38.086,28.320,34.668,34.180,0
1539618582.294,37.109,40.527,21.973,24.414,89.355,0
1539618582.298,34.180,39.062,29.297,28.320,24.414,0
1539618582.301,43.945,41.504,36.133,39.551,-2.930,0
1539618582.305,45.410,46.875,24.414,36.133,29.785,0
1539618582.309,37.109,42.969,18.555,21.973,25.879,0
1539618582.313,41.016,53.223,41.992,39.551,-9.277,0
1539618582.317,43.457,51.270,51.270,46.875,-20.020,0
1539618582.321,29.785,31.738,36.621,31.738,-32.715,0
1539618582.325,30.273,32.715,33.691,31.738,8.789,0
1539618582.329,33.691,35.156,38.574,33.691,27.344,0
1539618582.333,27.832,30.762,32.715,26.855,35.645,0
1539618582.337,30.273,27.832,29.297,26.367,56.641,0
1539618582.341,34.180,33.203,34.180,31.250,44.922,0
1539618582.344,29.297,35.645,34.668,29.785,58.105,0
1539618582.348,23.926,31.738,33.203,27.832,67.383,0
1539618582.352,25.879,30.762,37.109,26.367,38.086,0
1539618582.356,37.598,30.273,41.992,31.250,20.508,0
1539618582.360,28.809,28.809,41.016,30.273,53.223,0
1539618582.364,28.809,31.738,39.062,25.879,30.273,0
1539618582.368,33.203,38.574,40.039,27.832,-29.297,0
1539618582.372,32.227,40.039,35.645,27.344,44.922,0
1539618582.376,32.227,36.621,31.738,29.297,76.660,0
1539618582.380,39.062,30.762,32.227,31.738,4.395,0
1539618582.383,36.133,27.832,29.785,30.762,2.441,0
1539618582.387,28.809,35.645,30.762,30.273,46.875,0
1539618582.391,28.320,34.668,28.809,27.344,41.992,0
1539618582.395,28.320,31.738,32.227,27.832,65.918,0
1539618582.399,31.250,32.227,36.621,26.855,76.660,0
1539618582.403,29.297,33.691,36.621,21.973,-7.812,0
1539618582.407,28.809,34.180,37.109,27.344,-27.344,0
1539618582.411,32.227,26.367,38.086,34.180,-6.348,0
1539618582.415,30.762,31.250,36.133,28.320,18.555,0
1539618582.419,37.598,34.668,32.227,28.320,12.695,0
1539618582.423,30.762,31.738,29.297,29.297,21.973,0
1539618582.426,23.926,40.039,33.691,21.484,94.727,0
1539618582.430,20.996,44.922,36.133,17.578,74.707,0
1539618582.434,21.973,39.062,33.203,18.066,6.836,0
1539618582.438,24.902,40.039,33.203,16.602,17.578,0
1539618582.442,23.438,38.574,37.598,15.625,37.598,0
1539618582.446,26.367,38.086,39.062,20.020,67.871,0
1539618582.450,26.367,43.945,40.039,24.902,71.777,0
1539618582.454,29.297,38.574,43.945,30.762,-30.762,0
1539618582.458,31.738,34.180,39.551,30.762,-22.949,0
1539618582.462,31.738,39.551,37.598,26.367,19.043,0
1539618582.466,39.062,48.828,44.434,34.180,-26.855,0
1539618582.469,38.574,44.922,42.480,38.086,11.719,0
1539618582.473,29.785,39.551,36.621,35.645,41.016,0
1539618582.477,26.367,38.574,30.273,27.344,49.316,0
1539618582.481,25.391,29.785,29.785,29.785,61.035,0
1539618582.485,22.949,30.273,31.250,31.250,10.254,0
1539618582.489,27.832,37.598,33.691,26.855,19.531,0
1539618582.493,32.227,39.551,33.203,27.344,34.668,0
1539618582.497,27.832,36.621,30.273,22.461,28.320,0
1539618582.501,29.785,32.715,37.598,26.855,61.035,0
1539618582.505,33.203,38.574,42.480,30.762,42.480,0
1539618582.508,33.203,38.574,33.203,26.855,13.184,0
1539618582.512,28.320,31.738,26.855,20.508,22.461,0
1539618582.516,27.344,37.598,29.297,20.996,23.926,0
1539618582.520,27.832,42.480,28.320,22.949,65.918,0
1539618582.524,27.832,39.062,31.738,25.391,61.035,0
1539618582.528,26.855,34.180,33.691,25.879,60.059,0
1539618582.532,23.438,39.551,35.645,25.879,97.656,0
1539618582.536,29.785,46.387,31.738,29.297,64.453,0
1539618582.540,37.598,40.527,27.832,32.715,2.930,0
1539618582.544,40.527,42.969,38.574,35.645,21.973,0
1539618582.548,40.039,46.387,42.969,33.691,55.176,0
1539618582.551,29.785,34.180,40.527,26.855,6.348,0
1539618582.555,22.949,29.785,35.645,21.973,8.789,0
1539618582.559,27.832,39.062,30.273,22.461,16.113,0
1539618582.563,33.691,41.504,33.691,26.855,37.598,0
1539618582.567,32.227,41.016,37.109,29.297,8.789,0
1539618582.571,34.668,45.410,34.180,30.273,-13.672,0
1539618582.575,36.133,45.410,34.668,32.227,58.594,0
1539618582.579,41.504,42.969,38.574,34.180,58.594,0
1539618582.583,42.480,43.457,36.621,33.691,50.781,0
1539618582.587,34.180,44.434,33.691,26.367,86.426,0
1539618582.591,32.227,40.039,35.645,23.926,35.156,0
1539618582.594,33.691,37.598,37.109,24.902,9.277,0
1539618582.598,35.156,42.969,36.621,25.879,103.516,0
1539618582.602,32.227,43.945,38.086,27.344,102.051,0
1539618582.606,31.250,38.574,38.086,26.855,59.082,1
1539618582.610,37.109,34.180,38.086,28.320,40.527,0
1539618582.614,38.086,34.668,31.738,28.809,-7.324,0
1539618582.618,27.832,34.668,29.297,26.855,22.461,0
1539618582.622,34.668,38.086,34.180,24.414,34.180,0
1539618582.626,36.133,41.992,32.715,21.973,-1.953,0
1539618582.630,26.367,38.574,29.297,21.973,41.016,0
1539618582.633,35.156,40.527,34.668,25.879,71.289,0
1539618582.637,41.016,38.086,40.527,28.809,53.223,0
1539618582.641,43.945,31.738,40.039,32.227,34.180,0
1539618582.645,40.527,37.109,33.691,26.855,1.953,0
1539618582.649,27.832,39.551,27.832,24.414,13.184,0
1539618582.653,26.855,43.945,28.320,25.879,31.738,0
1539618582.657,28.809,48.828,24.902,19.531,7.812,0
1539618582.661,44.922,52.246,20.996,28.320,37.598,0
1539618582.665,44.434,44.434,21.484,29.297,35.156,0
1539618582.669,37.109,40.039,33.203,27.344,10.254,0
1539618582.673,35.645,46.875,44.922,26.367,-6.836,0
1539618582.676,31.250,34.180,38.574,20.020,27.344,0
1539618582.680,32.715,30.273,33.203,22.461,65.918,0
1539618582.684,31.738,32.715,30.762,24.414,90.820,0
1539618582.688,33.203,35.645,32.715,27.344,52.246,0
1539618582.692,35.156,46.387,33.203,27.832,-6.348,0
1539618582.696,34.180,38.574,31.250,28.320,26.367,0
1539618582.700,29.785,32.715,29.785,24.414,45.898,0
1539618582.704,29.297,42.969,33.203,25.391,38.574,0
1539618582.708,40.527,46.875,36.621,34.180,75.195,0
1539618582.712,39.551,44.434,33.203,28.809,54.688,0
1539618582.716,37.598,37.109,34.180,29.297,-26.855,0
1539618582.719,48.828,35.645,39.062,39.062,31.738,0
1539618582.723,52.734,42.969,41.992,48.828,75.195,0
1539618582.727,47.363,42.480,35.645,43.945,28.320,0
1539618582.731,39.551,37.598,37.109,34.180,49.316,0
1539618582.735,34.180,30.273,41.016,32.715,3.418,0
1539618582.739,35.156,20.508,37.109,32.227,-37.109,0
1539618582.743,36.133,29.785,40.527,31.738,43.945,0
1539618582.747,34.668,47.852,41.992,30.762,90.332,0
1539618582.751,43.457,49.805,39.062,31.738,47.363,0
1539618582.755,35.645,40.527,35.645,28.320,15.625,0
1539618582.758,41.992,50.781,49.805,41.504,64.941,0
1539618582.762,43.457,51.270,44.434,41.016,46.387,0
1539618582.766,21.484,35.156,22.461,22.461,-7.812,0
1539618582.770,24.414,30.762,25.879,22.949,1.465,0
1539618582.774,29.785,29.297,32.715,23.926,21.484,0
1539618582.778,34.180,33.203,35.156,28.320,24.902,0
1539618582.782,36.133,35.645,37.109,34.668,52.734,0
1539618582.786,27.344,32.715,39.062,33.691,25.391,0
1539618582.790,28.320,31.250,39.551,32.227,-31.250,0
1539618582.794,27.832,35.645,38.574,29.785,43.457,0
1539618582.798,20.996,33.691,37.598,25.879,85.449,0
1539618582.801,27.344,32.715,38.086,27.344,14.160,0
1539618582.805,22.461,39.062,35.156,26.367,13.184,0
1539618582.809,17.090,31.250,36.133,23.926,74.707,0
1539618582.813,26.367,25.391,40.527,30.762,48.340,0
1539618582.817,29.785,33.203,41.504,35.156,-2.441,0
1539618582.821,38.574,35.156,40.039,36.133,14.648,0
1539618582.825,40.039,40.039,38.574,41.992,54.199,0
1539618582.829,36.621,41.016,40.527,48.340,59.570,0
1539618582.833,40.039,36.133,40.527,48.340,42.969,0
1539618582.837,38.086,41.504,41.016,44.922,-9.277,0
1539618582.841,31.250,42.480,38.086,40.039,-33.203,0
1539618582.844,36.621,34.668,34.668,31.250,-15.625,0
1539618582.848,42.969,37.109,41.016,30.762,30.762,0
1539618582.852,28.809,45.898,41.992,30.273,38.086,0
1539618582.856,24.414,38.574,33.691,18.066,3.906,0
1539618582.860,33.691,31.738,33.203,19.043,10.254,0
1539618582.864,27.832,40.039,31.250,20.508,56.152,0
1539618582.868,16.602,45.898,29.297,14.160,36.621,0
1539618582.872,12.695,40.039,30.273,17.090,70.312,0
1539618582.876,20.996,31.250,37.598,22.949,38.086,0
1539618582.880,31.738,33.691,40.527,29.297,33.691,0
1539618582.883,40.039,45.410,30.762,36.133,57.129,0
1539618582.887,46.387,53.711,36.133,41.016,49.805,0
1539618582.891,37.598,46.875,36.621,38.086,37.598,0
1539618582.895,32.227,37.109,31.250,29.297,-3.418,0
1539618582.899,28.320,38.086,32.227,28.320,54.199,0
1539618582.903,24.902,38.086,29.785,27.344,94.727,0
1539618582.907,31.250,36.621,30.762,28.809,35.645,0
1539618582.911,37.109,45.898,37.109,33.203,-19.043,0
1539618582.915,34.180,51.270,41.504,33.203,-2.441,0
1539618582.919,28.809,37.109,37.598,29.297,55.176,0
1539618582.923,33.691,35.645,36.621,22.461,48.340,0
1539618582.926,38.086,44.434,38.574,24.902,58.105,0
1539618582.930,31.250,40.039,34.180,28.320,53.223,0
1539618582.934,29.785,34.668,34.668,29.785,34.180,0
1539618582.938,31.250,38.574,37.598,34.180,-3.906,0
1539618582.942,32.227,45.410,41.016,36.621,13.672,0
1539618582.946,28.320,44.922,37.598,32.715,49.316,0
1539618582.950,26.855,33.691,32.227,27.832,32.227,0
1539618582.954,29.785,17.090,37.598,33.691,1.953,0
1539618582.958,31.738,27.832,38.574,33.691,49.316,0
1539618582.962,25.879,51.270,32.227,27.344,73.242,0
1539618582.966,18.555,47.363,31.250,24.414,34.180,0
1539618582.969,27.832,39.551,39.062,24.902,52.734,0
1539618582.973,31.738,32.715,41.992,27.344,61.035,0
1539618582.977,29.297,34.180,39.551,24.902,30.273,0
1539618582.981,22.461,36.621,33.203,26.367,9.277,0
1539618582.985,25.391,32.715,32.715,27.832,40.527,0
1539618582.989,33.203,41.992,38.086,26.855,37.598,0
1539618582.993,33.691,41.992,35.156,24.414,31.250,0
1539618582.997,27.832,25.879,28.320,23.926,44.434,0
1539618583.001,33.203,30.762,35.156,27.832,56.152,0
1539618583.005,32.227,42.480,37.109,30.762,-6.836,0
1539618583.008,27.344,37.598,31.738,31.738,-35.156,0
1539618583.012,31.250,29.297,33.691,34.668,14.160,0
1539618583.016,41.504,30.273,36.621,37.109,47.852,0
1539618583.020,45.410,37.598,34.180,34.668,44.922,0
1539618583.024,28.320,38.574,36.621,35.645,37.109,0
1539618583.028,31.250,40.039,35.645,30.762,56.152,0
1539618583.032,35.645,41.992,28.320,25.879,60.547,0
1539618583.036,28.320,35.156,28.320,29.297,16.602,0
1539618583.040,34.668,35.645,36.621,37.109,28.320,0
1539618583.044,38.086,43.457,39.062,36.621,26.367,0
1539618583.048,39.062,30.762,29.297,30.273,26.367,0
1539618583.051,39.062,19.531,25.879,34.668,59.082,0
1539618583.055,47.852,38.574,44.434,42.969,5.859,0
1539618583.059,51.270,50.293,51.758,38.574,-0.488,0
1539618583.063,27.344,44.434,31.250,23.438,26.367,0
1539618583.067,14.648,36.621,22.461,13.672,36.133,0
1539618583.071,19.043,35.645,26.855,11.230,31.738,0
1539618583.075,20.996,38.086,31.250,11.230,20.996,0
1539618583.079,31.250,37.109,33.203,16.113,41.016,0
1539618583.083,33.691,37.109,32.715,24.902,40.527,0
1539618583.087,32.715,40.527,34.668,29.785,22.949,0
1539618583.091,30.273,42.969,36.133,29.785,44.922,0
1539618583.094,27.344,36.133,39.551,34.668,51.758,0
1539618583.098,47.852,38.086,38.574,36.621,93.262,0
1539618583.102,51.270,40.527,38.086,35.156,115.234,0
1539618583.106,31.250,36.621,36.133,34.668,42.480,0
1539618583.110,30.273,44.434,37.598,37.598,5.371,0
1539618583.114,36.621,42.969,40.039,30.762,8.789,0
1539618583.118,29.785,37.109,33.691,24.902,14.160,0
1539618583.122,26.367,38.574,33.203,22.949,20.020,0
1539618583.126,37.109,36.621,40.039,31.738,48.340,0
1539618583.130,39.551,38.574,43.457,38.086,16.602,0
1539618583.133,27.344,36.133,32.227,24.902,-4.395,0
1539618583.137,19.531,31.738,27.344,14.160,-19.531,0
1539618583.141,25.879,34.180,31.250,19.531,-16.602,0
1539618583.145,22.949,33.203,33.691,25.879,12.695,0
1539618583.149,28.320,35.156,36.133,22.461,-18.066,0
1539618583.153,36.133,39.551,35.645,22.949,28.320,0
1539618583.157,32.227,41.504,38.574,29.785,49.316,0
1539618583.161,35.645,43.945,38.086,31.250,39.551,0
1539618583.165,39.551,35.645,35.645,30.273,92.285,0
1539618583.169,41.504,32.227,37.598,37.109,9.277,0
1539618583.173,38.574,37.109,36.621,38.574,-19.531,0
1539618583.176,38.086,41.504,34.180,36.621,33.203,0
1539618583.180,33.691,42.969,32.715,30.762,37.598,0
1539618583.184,34.180,37.598,33.203,30.273,68.848,0
1539618583.188,30.762,34.180,32.715,35.156,85.938,0
1539618583.192,25.391,34.668,30.273,30.273,90.820,0
1539618583.196,29.297,33.691,32.227,19.043,12.207,0
1539618583.200,20.020,39.551,37.109,16.602,-54.199,0
1539618583.204,19.043,38.574,37.109,20.508,0.488,0
1539618583.208,27.832,30.762,40.039,22.949,27.344,0
1539618583.212,24.902,34.180,38.574,23.438,41.992,0
1539618583.216,22.949,36.621,32.715,17.578,33.203,0
1539618583.219,33.691,37.598,30.762,16.113,48.340,0
1539618583.223,45.410,41.504,28.809,25.391,68.848,0
1539618583.227,41.504,39.551,29.297,28.320,6.836,0
1539618583.231,45.898,44.922,35.156,36.621,13.672,0
1539618583.235,50.781,41.016,43.945,46.875,31.250,0
1539618583.239,41.016,29.785,38.574,41.992,45.410,0
1539618583.243,36.133,31.738,29.297,36.621,64.941,0
1539618583.247,34.180,35.156,32.715,39.062,27.344,0
1539618583.251,28.809,32.227,36.133,44.434,78.125,0
1539618583.255,29.785,33.203,28.809,37.598,120.605,0
1539618583.258,35.645,48.340,26.367,38.574,42.480,0
1539618583.262,36.621,43.945,33.203,40.039,-10.254,0
1539618583.266,32.715,33.691,35.156,34.180,33.691,0
1539618583.270,31.250,43.457,38.086,31.738,44.922,0
1539618583.274,46.875,54.199,47.852,38.574,12.695,0
1539618583.278,39.551,45.410,33.691,32.227,17.578,0
1539618583.282,20.996,35.156,20.996,21.484,39.551,0
1539618583.286,28.320,41.504,34.668,30.762,37.598,0
1539618583.290,32.715,38.086,40.039,35.156,51.270,0
1539618583.294,28.320,31.738,40.039,31.250,-11.230,0
1539618583.298,30.762,41.016,47.363,31.738,-30.273,0
1539618583.301,28.320,39.062,44.922,35.156,6.348,0
1539618583.305,29.785,36.133,40.039,36.133,-2.930,0
1539618583.309,30.762,46.875,44.922,33.203,28.809,0
1539618583.313,23.438,40.527,35.645,27.344,58.105,0
1539618583.317,22.949,33.691,27.832,22.461,21.973,0
1539618583.321,21.484,37.109,30.273,21.973,-2.930,0
1539618583.325,28.320,41.992,34.668,35.645,6.348,0
1539618583.329,38.574,36.133,36.621,41.016,41.992,0
1539618583.333,33.691,36.133,34.180,35.156,32.715,0
1539618583.337,30.273,42.969,34.668,34.180,14.648,0
1539618583.341,36.133,35.645,34.668,32.715,25.879,0
1539618583.344,43.457,40.039,35.156,38.574,72.754,0
1539618583.348,45.898,52.734,35.645,36.133,82.031,0
1539618583.352,40.527,44.434,31.738,29.785,5.859,0
1539618583.356,43.457,37.109,30.273,32.715,24.414,0
1539618583.360,45.898,39.062,28.320,29.297,43.457,0
1539618583.364,44.434,41.504,29.297,27.344,-59.570,0
1539618583.368,44.434,39.551,31.250,30.762,-37.109,0
1539618583.372,45.898,38.086,31.250,37.109,27.344,0
1539618583.376,53.223,39.062,31.738,47.363,9.277,0
1539618583.380,51.270,39.062,25.391,42.969,13.184,0
1539618583.383,49.805,39.551,23.926,42.969,50.781,0
1539618583.387,51.758,39.062,27.832,47.852,94.727,0
1539618583.391,55.176,42.969,27.832,47.363,55.664,0
1539618583.395,53.223,41.016,26.367,49.805,20.020,0
1539618583.399,51.270,37.598,26.855,50.293,63.965,0
1539618583.403,47.852,43.945,30.762,53.223,53.711,0
1539618583.407,47.852,42.969,32.715,50.781,39.551,0
1539618583.411,41.504,41.992,27.832,39.551,44.434,0
1539618583.415,43.945,41.504,30.762,43.945,20.020,0
1539618583.419,61.035,47.363,39.551,56.152,21.484,0
1539618583.423,50.781,52.246,34.180,50.293,57.617,0
1539618583.426,38.086,45.410,25.879,39.551,48.828,0
1539618583.430,48.340,39.062,28.809,42.969,51.270,0
1539618583.434,54.199,27.344,33.691,50.293,61.523,0
1539618583.438,43.457,36.621,27.344,41.504,36.133,0
1539618583.442,39.551,49.316,26.367,32.227,32.715,0
1539618583.446,42.969,48.828,33.203,36.133,20.996,0
1539618583.450,35.156,46.875,29.297,37.598,55.176,0
1539618583.454,36.133,45.410,23.926,36.133,73.242,0
1539618583.458,40.039,43.945,21.973,33.203,11.719,0
1539618583.462,38.574,42.480,25.391,30.762,-5.371,0
1539618583.466,43.457,44.434,36.133,34.668,-4.883,0
1539618583.469,47.363,40.039,38.086,36.133,7.324,0
1539618583.473,43.945,39.062,39.062,38.086,19.531,0
1539618583.477,44.922,30.273,38.086,36.133,47.363,0
1539618583.481,41.992,31.738,32.227,28.320,25.391,0
1539618583.485,49.805,46.875,39.551,38.086,30.762,0
1539618583.489,51.758,45.898,41.992,46.875,69.824,0
1539618583.493,39.062,34.668,29.297,38.574,39.062,0
1539618583.497,38.086,35.645,19.531,31.738,37.598,0
1539618583.501,37.109,37.109,27.832,34.180,53.711,0
1539618583.505,42.480,24.902,36.133,38.574,27.832,0
1539618583.508,42.480,33.203,35.645,39.062,19.043,0
1539618583.512,52.734,55.176,40.527,46.387,53.223,0
1539618583.516,51.758,48.828,37.109,50.781,40.039,0
1539618583.520,32.715,35.156,28.809,36.133,64.453,0
1539618583.524,28.809,33.203,34.180,24.902,107.910,0
1539618583.528,29.297,36.133,34.180,24.414,112.305,0
1539618583.532,40.039,37.109,35.156,32.715,69.824,0
1539618583.536,36.621,29.297,33.203,31.250,48.340,0
1539618583.540,33.203,32.715,35.645,33.691,-1.465,0
1539618583.544,42.969,45.898,41.016,38.574,-34.180,0
1539618583.548,39.062,43.945,32.715,29.785,-19.531,0
1539618583.551,29.297,34.180,19.043,24.902,13.184,0
1539618583.555,30.762,35.156,20.996,27.344,-3.418,0
1539618583.559,31.738,33.203,32.227,31.738,44.434,0
1539618583.563,41.504,29.297,38.086,38.086,52.246,0
1539618583.567,41.504,33.691,38.086,38.086,3.418,0
1539618583.571,37.598,28.809,32.715,32.715,-19.531,0
1539618583.575,35.645,29.785,31.250,33.203,-9.277,0
1539618583.579,34.668,34.668,33.203,36.133,26.855,0
1539618583.583,44.922,35.645,30.762,34.668,17.090,0
1539618583.587,44.434,41.992,35.156,37.598,51.758,0
1539618583.591,39.062,42.480,33.203,39.551,71.777,0
1539618583.594,46.875,36.133,32.227,38.574,19.531,0
1539618583.598,46.387,35.645,38.574,38.574,25.879,0
1539618583.602,39.551,40.527,37.109,38.574,25.391,0
1539618583.606,38.086,39.551,37.109,42.480,-3.418,0
1539618583.610,34.668,37.598,41.016,42.969,61.035,0
1539618583.614,37.598,39.062,39.551,40.527,67.383,0
1539618583.618,35.645,40.039,34.180,36.133,20.996,0
1539618583.622,26.367,35.156,31.250,30.762,56.152,0
1539618583.626,27.344,30.762,31.250,32.227,20.020,0
1539618583.630,29.297,32.227,32.715,32.715,16.602,0
1539618583.633,30.273,36.621,32.715,36.621,56.641,0
1539618583.637,27.344,35.156,29.785,31.738,114.746,0
1539618583.641,35.645,38.086,38.086,30.273,115.723,0
1539618583.645,35.156,39.551,40.527,35.645,36.133,0
1539618583.649,23.926,33.203,29.785,27.344,0.488,0
1539618583.653,27.832,34.668,33.203,27.832,-29.297,0
1539618583.657,25.879,33.203,36.621,28.320,28.809,0
1539618583.661,30.762,29.785,31.738,28.809,33.203,0
1539618583.665,32.715,30.273,29.297,29.785,11.719,0
1539618583.669,26.855,27.832,27.832,30.762,3.906,0
1539618583.673,34.668,31.250,34.668,39.062,-8.789,0
1539618583.676,40.039,37.109,45.410,39.551,4.883,0
1539618583.680,36.133,41.016,44.434,41.016,-8.301,0
1539618583.684,36.133,41.504,35.645,39.062,16.113,0
1539618583.688,39.062,33.691,31.738,35.156,12.207,0
1539618583.692,34.668,35.156,29.297,30.273,4.395,0
1539618583.696,33.203,34.668,32.715,28.809,47.852,0
1539618583.700,41.016,33.691,36.621,33.203,50.781,0
1539618583.704,42.480,37.598,35.156,33.203,46.387,0
1539618583.708,32.715,41.992,34.180,30.762,81.055,0
1539618583.712,37.598,45.898,33.691,37.598,63.477,0
1539618583.716,36.621,43.945,34.668,30.273,55.176,0
1539618583.719,29.297,36.133,38.574,24.414,73.730,0
1539618583.723,31.250,32.715,39.551,32.715,40.039,0
1539618583.727,32.715,38.086,36.621,32.715,44.922,0
1539618583.731,31.250,39.062,32.715,24.414,57.129,0
1539618583.735,27.344,39.062,27.344,17.578,0.000,0
1539618583.739,26.367,46.387,26.855,24.902,21.973,0
1539618583.743,31.250,51.270,30.273,25.879,41.992,0
1539618583.747,36.621,45.898,32.227,27.832,-1.953,0
1539618583.751,34.180,40.039,29.297,28.809,39.551,0
1539618583.755,33.203,38.574,28.320,29.297,43.945,0
1539618583.758,32.227,41.504,26.367,34.180,25.391,0
1539618583.762,35.645,38.574,27.832,27.832,75.684,0
1539618583.766,41.992,39.551,30.273,24.414,80.566,0
1539618583.770,37.598,45.898,29.785,29.297,53.223,0
1539618583.774,40.039,41.504,33.203,30.762,20.020,0
1539618583.778,40.039,34.180,37.598,33.691,8.789,0
1539618583.782,31.250,27.344,28.809,28.320,-9.277,0
1539618583.786,30.762,33.691,19.043,24.414,-4.883,0
1539618583.790,40.039,43.457,27.832,36.133,48.340,0
1539618583.794,44.922,41.504,35.156,38.086,49.316,0
1539618583.798,35.156,36.621,28.809,33.203,8.789,0
1539618583.801,31.250,39.551,24.902,32.227,25.879,0
1539618583.805,34.180,37.598,23.926,32.715,21.484,0
1539618583.809,38.574,31.250,23.926,24.902,28.809,0
1539618583.813,35.156,35.645,27.344,20.508,32.227,0
1539618583.817,25.391,34.668,27.344,29.297,-11.230,0
1539618583.821,29.785,25.879,28.809,31.250,-26.855,0
1539618583.825,38.574,31.250,35.156,31.738,29.785,0
1539618583.829,32.227,41.504,32.715,27.832,100.098,0
1539618583.833,27.832,32.715,24.902,24.902,25.879,0
1539618583.837,31.250,32.227,26.855,24.414,5.371,0
1539618583.841,36.621,42.969,29.785,23.438,-7.812,0
1539618583.844,35.156,43.457,24.902,26.855,-30.273,0
1539618583.848,26.855,42.969,22.949,25.391,65.430,0
1539618583.852,27.832,41.504,30.273,15.137,49.805,0
1539618583.856,24.902,40.039,36.133,8.301,11.230,0
1539618583.860,20.996,40.527,36.133,17.090,5.371,0
1539618583.864,18.066,38.086,34.180,10.254,-28.320,0
1539618583.868,8.789,34.180,37.598,2.930,31.250,0
1539618583.872,10.254,34.668,44.922,4.395,39.551,0
1539618583.876,10.254,44.922,43.945,5.859,40.039,0
1539618583.880,3.418,41.992,38.574,6.348,64.453,0
1539618583.883,16.113,37.109,42.480,12.695,-20.020,0
1539618583.887,17.090,40.039,40.527,9.277,-4.395,0
1539618583.891,10.742,35.645,34.180,1.953,44.922,0
1539618583.895,14.160,36.133,31.738,9.766,32.715,0
1539618583.899,19.531,38.086,30.762,12.207,25.391,0
1539618583.903,15.625,40.039,28.809,7.812,16.113,0
1539618583.907,11.719,41.504,31.250,8.301,34.668,0
1539618583.911,13.184,32.227,36.621,11.719,50.781,0
1539618583.915,11.230,31.738,41.016,13.184,-15.137,0
1539618583.919,25.391,42.969,41.504,17.578,-47.852,0
1539618583.923,34.180,47.363,41.992,20.020,30.762,0
1539618583.926,20.996,39.062,39.062,17.090,95.215,0
1539618583.930,19.531,29.785,32.227,14.648,62.012,0
1539618583.934,31.250,35.645,36.621,22.461,43.457,0
1539618583.938,35.645,31.250,41.992,27.344,59.570,0
1539618583.942,40.039,20.020,31.738,25.391,41.992,0
1539618583.946,38.574,30.762,32.227,27.344,25.879,0
1539618583.950,35.156,42.480,46.875,31.250,15.625,0
1539618583.954,26.367,41.992,41.992,24.414,-20.020,0
1539618583.958,12.207,34.668,31.738,16.113,0.000,0
1539618583.962,18.555,33.203,35.156,20.996,51.758,0
1539618583.966,26.367,41.016,39.551,27.832,35.645,0
1539618583.969,32.715,40.039,37.598,28.809,14.648,0
1539618583.973,33.691,36.133,37.109,26.367,59.570,0
1539618583.977,28.320,40.039,35.645,23.438,28.809,0
1539618583.981,21.973,44.922,34.180,21.973,-7.324,0
1539618583.985,20.996,41.016,36.133,20.996,83.008,0
1539618583.989,25.391,37.109,31.738,18.555,-6.836,0
1539618583.993,20.996,39.062,28.320,23.926,-45.898,0
1539618583.997,20.020,36.621,33.203,26.367,50.293,0
1539618584.001,25.391,34.668,36.133,19.531,22.461,0
1539618584.005,28.320,40.527,37.598,17.578,-4.395,0
1539618584.008,25.879,42.969,37.109,21.484,-17.090,0
1539618584.012,24.902,47.852,34.180,29.785,20.508,0
1539618584.016,25.391,48.828,32.715,29.785,37.109,0
1539618584.020,23.926,41.992,30.762,22.461,56.152,0
1539618584.024,25.879,41.504,32.715,22.461,52.734,0
1539618584.028,26.855,39.062,37.109,21.484,52.734,0
1539618584.032,34.180,43.945,45.898,28.320,69.336,1
1539618584.036,36.133,42.480,41.504,30.762,41.992,0
1539618584.040,24.414,37.109,33.203,22.949,41.504,0
1539618584.044,16.113,36.133,31.738,17.578,-12.207,0
1539618584.048,24.414,32.227,34.668,18.555,22.949,0
1539618584.051,28.809,33.691,37.109,23.438,109.863,0
1539618584.055,27.832,41.992,35.645,24.902,41.504,0
1539618584.059,28.320,41.016,35.156,23.438,-3.906,0
1539618584.063,26.367,36.621,34.668,21.973,75.684,0
1539618584.067,30.273,36.133,35.156,22.461,-11.719,0
1539618584.071,27.832,33.691,33.691,23.926,1.465,0
1539618584.075,30.273,33.203,33.691,30.273,80.566,0
1539618584.079,37.598,40.527,37.109,34.180,35.156,0
1539618584.083,35.645,33.691,42.480,33.691,37.109,0
1539618584.087,38.086,34.180,41.992,35.156,32.227,0
1539618584.091,37.598,44.434,29.785,30.273,52.246,0
1539618584.094,30.762,41.016,25.391,21.973,79.590,0
1539618584.098,33.691,48.828,33.203,21.484,77.148,0
1539618584.102,31.738,43.945,35.156,21.973,36.133,0
1539618584.106,33.691,37.109,38.574,25.391,47.852,0
1539618584.110,45.410,50.781,42.480,31.738,24.414,0
1539618584.114,39.062,45.898,38.574,29.785,17.090,0
1539618584.118,37.109,32.227,39.062,29.297,-0.488,0
1539618584.122,41.016,34.668,40.527,32.715,-22.949,0
1539618584.126,36.133,34.180,30.762,32.715,27.344,0
1539618584.130,30.273,35.156,28.809,33.691,16.113,0
1539618584.133,34.668,41.992,40.527,38.086,15.625,0
1539618584.137,38.574,40.527,41.016,32.227,14.648,0
1539618584.141,33.691,40.527,37.598,25.391,45.410,0
1539618584.145,35.156,44.922,40.039,30.762,55.176,0
1539618584.149,38.086,42.969,39.062,33.203,83.496,0
1539618584.153,31.738,37.109,33.203,24.902,18.066,0
1539618584.157,31.250,40.527,32.227,24.414,-44.922,0
1539618584.161,34.668,43.457,33.691,31.250,23.438,0
1539618584.165,40.039,40.527,33.691,29.297,16.113,0
1539618584.169,41.016,40.039,33.203,31.738,30.273,0
1539618584.173,32.715,37.598,32.227,29.297,40.039,0
1539618584.176,34.180,35.156,29.297,28.320,23.926,0
1539618584.180,41.992,32.227,32.227,40.039,-3.418,0
1539618584.184,45.898,32.227,34.180,37.598,-48.828,0
1539618584.188,43.457,41.016,40.039,45.410,-7.324,0
1539618584.192,48.828,44.434,41.016,54.199,33.203,0
1539618584.196,49.805,38.086,32.227,42.969,54.688,0
1539618584.200,45.898,33.691,32.227,45.898,22.461,0
1539618584.204,49.316,27.344,29.785,50.781,-27.832,0
1539618584.208,58.105,27.832,35.645,56.152,32.227,0
1539618584.212,49.805,31.250,41.992,55.664,24.414,0
1539618584.216,43.945,33.203,39.062,47.852,11.230,0
1539618584.219,46.875,38.086,37.109,47.363,96.191,0
1539618584.223,48.828,36.621,37.598,48.340,102.539,0
1539618584.227,49.805,32.715,38.086,43.945,70.801,0
1539618584.231,45.898,33.203,39.062,45.410,58.594,0
1539618584.235,42.480,36.621,38.574,53.223,51.758,0
1539618584.239,42.480,37.598,36.621,54.199,65.430,0
1539618584.243,38.574,36.133,37.598,51.758,55.176,0
1539618584.247,46.387,33.203,40.039,49.805,51.758,0
1539618584.251,45.898,34.668,37.598,50.293,55.664,0
1539618584.255,42.480,37.109,35.645,50.781,63.477,0
1539618584.258,41.992,37.598,35.645,50.781,71.777,0
1539618584.262,36.621,36.621,33.691,46.387,45.410,0
1539618584.266,41.504,36.133,34.668,44.434,-34.180,0
1539618584.270,40.527,41.016,33.691,45.898,-5.859,0
1539618584.274,41.016,38.574,31.250,39.551,64.941,0
1539618584.278,43.945,41.016,32.715,36.621,6.836,0
1539618584.282,49.316,41.504,38.574,41.016,-21.973,0
1539618584.286,53.711,29.785,36.133,37.598,-8.301,0
1539618584.290,48.340,25.391,29.297,30.273,53.711,0
1539618584.294,42.969,29.785,27.344,25.391,54.199,0
1539618584.298,41.016,33.203,32.227,31.250,-2.441,0
1539618584.301,40.039,34.668,36.621,41.992,0.488,0
1539618584.305,34.668,28.320,37.598,40.527,43.457,0
1539618584.309,41.992,31.738,37.598,44.922,48.340,0
1539618584.313,45.898,34.180,32.715,44.434,13.672,0
1539618584.317,41.016,31.250,35.156,39.551,13.184,0
1539618584.321,37.598,34.180,29.785,39.062,4.883,0
1539618584.325,39.062,38.086,21.973,39.062,7.812,0
1539618584.329,50.781,45.898,32.227,47.852,51.270,0
1539618584.333,44.434,47.363,32.227,46.875,26.367,0
1539618584.337,35.156,41.992,26.367,41.504,34.180,0
1539618584.341,37.598,40.527,27.344,39.062,76.172,0
1539618584.344,40.039,44.434,37.109,41.016,81.543,0
1539618584.348,37.598,44.434,43.457,44.922,26.367,0
1539618584.352,31.738,37.598,36.133,32.227,12.207,0
1539618584.356,34.180,39.062,30.273,24.414,55.176,0
1539618584.360,31.738,39.551,31.738,30.273,52.246,0
1539618584.364,33.691,38.086,34.668,25.391,2.441,0
1539618584.368,35.645,38.086,30.273,22.461,-2.930,0
1539618584.372,30.762,41.504,26.855,23.926,42.969,0
1539618584.376,28.809,43.457,31.250,18.555,35.645,0
1539618584.380,31.250,45.410,35.156,21.484,-13.184,0
1539618584.383,32.715,45.410,35.645,24.414,-43.457,0
1539618584.387,39.551,41.992,36.621,28.809,-39.062,0
1539618584.391,37.109,38.086,28.809,28.809,60.059,0
1539618584.395,32.715,37.109,30.762,27.832,77.148,0
1539618584.399,38.086,48.828,35.156,30.273,62.012,0
1539618584.403,41.504,51.270,36.621,35.156,41.504,0
1539618584.407,46.875,35.645,40.527,41.992,9.766,0
1539618584.411,48.828,38.086,37.109,46.387,16.602,0
1539618584.415,49.316,58.105,39.062,56.641,40.039,0
1539618584.419,37.109,48.340,37.598,45.410,65.918,0
1539618584.423,22.461,30.762,29.785,23.438,16.113,0
1539618584.426,21.973,33.203,27.832,24.902,3.418,0
1539618584.430,27.832,38.086,30.273,30.762,6.348,0
1539618584.434,29.297,38.086,33.691,30.273,24.414,0
1539618584.438,30.762,39.551,34.668,32.715,69.336,0
1539618584.442,28.320,39.062,31.738,29.297,34.180,0
1539618584.446,33.691,41.504,32.715,28.809,-25.391,0
1539618584.450,39.062,43.945,41.016,36.133,15.625,0
1539618584.454,32.715,35.645,38.574,33.203,44.434,0
1539618584.458,25.391,34.668,35.645,29.297,54.688,0
1539618584.462,25.879,42.969,35.156,29.785,31.738,0
1539618584.466,34.668,41.016,34.668,23.926,7.324,0
1539618584.469,33.203,38.574,37.109,16.602,43.457,0
1539618584.473,23.926,41.016,37.109,20.996,32.227,0
1539618584.477,23.926,39.062,35.645,21.484,25.879,0
1539618584.481,22.949,37.598,33.203,19.043,10.254,0
1539618584.485,23.438,41.504,34.180,19.531,25.391,0
1539618584.489,34.180,46.875,38.086,27.344,55.176,0
1539618584.493,33.203,43.945,41.016,35.156,-6.348,0
1539618584.497,23.926,41.016,39.062,32.227,64.941,0
1539618584.501,27.832,40.527,37.598,30.762,62.012,0
1539618584.505,28.809,40.039,32.715,29.785,-15.137,0
1539618584.508,29.297,39.062,32.227,27.344,14.160,0
1539618584.512,37.109,35.156,36.133,25.391,20.996,0
1539618584.516,38.574,42.969,39.551,29.785,23.926,0
1539618584.520,30.273,49.805,40.039,29.785,53.711,0
1539618584.524,25.879,40.039,31.738,21.973,58.594,0
1539618584.528,22.949,35.645,35.645,23.438,43.945,0
1539618584.532,28.809,36.621,43.457,25.391,30.762,0
1539618584.536,33.691,41.016,41.504,24.414,68.848,0
1539618584.540,25.879,43.457,32.227,27.344,82.031,0
1539618584.544,34.180,33.691,31.250,29.297,1.953,0
1539618584.548,32.227,33.691,35.645,26.855,20.508,0
1539618584.551,26.367,35.645,35.645,26.367,96.191,0
1539618584.555,26.367,39.062,33.691,25.391,69.824,0
1539618584.559,25.879,44.922,37.109,20.020,16.602,0
1539618584.563,30.273,42.480,36.621,17.090,1.953,0
1539618584.567,25.879,36.621,31.738,20.020,67.871,0
1539618584.571,26.855,32.227,35.156,25.391,53.223,0
1539618584.575,37.109,36.133,38.574,28.809,-19.531,0
1539618584.579,39.551,43.457,40.527,27.832,-14.160,0
1539618584.583,32.715,40.039,35.156,23.438,17.578,0
1539618584.587,31.250,36.621,34.668,27.832,13.672,0
1539618584.591,36.133,36.133,32.715,34.180,11.230,0
1539618584.594,35.156,35.645,26.367,34.180,57.129,0
1539618584.598,31.250,35.156,30.762,33.203,74.707,0
1539618584.602,44.922,32.715,37.598,35.156,48.340,0
1539618584.606,46.387,35.156,39.062,35.156,22.461,0
1539618584.610,31.250,37.598,36.133,38.086,83.496,0
1539618584.614,32.715,40.527,34.668,42.480,73.730,0
1539618584.618,41.992,44.434,34.668,45.898,30.762,0
1539618584.622,42.480,37.598,34.180,41.992,62.988,0
1539618584.626,34.668,29.297,34.668,33.691,67.871,0
1539618584.630,32.715,28.809,36.621,35.156,19.043,0
1539618584.633,37.598,36.621,39.062,31.738,18.555,0
1539618584.637,37.109,39.551,38.086,30.762,54.199,0
1539618584.641,26.367,35.645,23.926,24.414,51.270,0
1539618584.645,22.949,36.621,24.414,17.090,62.012,0
1539618584.649,28.809,35.645,36.133,17.090,71.777,0
1539618584.653,22.949,33.691,26.855,12.695,48.340,0
1539618584.657,21.973,35.645,24.414,21.973,36.621,0
1539618584.661,27.832,40.527,36.133,23.926,49.316,0
1539618584.665,22.949,41.504,40.039,18.066,66.406,0
1539618584.669,26.855,33.203,35.645,20.020,83.496,0
1539618584.673,27.832,22.949,36.621,20.508,62.012,0
1539618584.676,22.461,27.344,34.180,19.043,42.480,0
1539618584.680,15.625,30.273,26.855,14.648,0.977,0
1539618584.684,15.625,39.062,26.855,12.695,-0.488,0
1539618584.688,21.973,41.504,28.320,19.531,23.926,0
1539618584.692,19.531,33.691,31.250,20.508,25.391,0
1539618584.696,23.438,36.621,31.738,17.090,21.973,0
1539618584.700,27.832,41.992,34.668,24.414,23.926,0
1539618584.704,29.785,39.062,36.621,30.762,18.555,0
1539618584.708,34.180,39.062,34.668,35.156,-3.906,0
1539618584.712,37.598,41.504,37.109,37.109,8.301,0
1539618584.716,41.016,37.598,38.574,37.598,5.859,0
1539618584.719,36.621,36.621,38.086,36.133,-3.906,0
1539618584.723,37.598,42.480,42.969,36.621,71.289,0
1539618584.727,39.551,48.340,40.039,41.016,43.945,0
1539618584.731,36.621,39.551,32.715,35.156,-20.508,0
1539618584.735,34.668,29.297,35.156,30.273,-16.602,0
1539618584.739,36.133,33.203,36.133,26.855,52.734,0
1539618584.743,35.156,41.992,34.668,25.391,87.891,0
1539618584.747,38.574,45.898,33.691,28.320,59.570,0
1539618584.751,41.016,44.434,31.738,28.320,30.273,0
1539618584.755,32.227,41.992,31.250,25.879,29.785,0
1539618584.758,41.992,44.922,34.668,31.250,27.344,0
1539618584.762,55.664,42.480,38.574,39.551,47.363,0
1539618584.766,43.457,36.621,35.645,29.297,42.969,0
1539618584.770,31.738,40.039,28.809,24.902,74.707,0
1539618584.774,30.273,45.898,25.391,27.344,91.797,0
1539618584.778,34.668,46.387,29.297,28.809,6.348,0
1539618584.782,41.992,41.016,33.691,31.738,18.066,0
1539618584.786,36.133,41.016,33.203,31.738,72.754,0
1539618584.790,32.227,43.945,34.180,32.715,26.855,0
1539618584.794,36.621,41.504,34.668,34.668,5.859,0
1539618584.798,37.598,41.992,34.668,37.109,24.902,0
1539618584.801,41.504,41.504,33.691,33.691,13.184,0
1539618584.805,41.016,38.574,35.645,38.086,-4.883,0
1539618584.809,46.875,38.086,37.598,45.898,44.434,0
1539618584.813,47.363,42.480,35.645,41.504,30.762,0
1539618584.817,41.504,40.527,39.062,32.715,47.363,0
1539618584.821,48.340,34.180,38.574,33.203,54.199,0
1539618584.825,44.922,37.109,36.133,38.086,4.883,0
1539618584.829,33.203,41.016,38.574,39.062,1.465,0
1539618584.833,38.574,41.016,38.086,35.645,25.391,0
1539618584.837,35.645,39.551,38.086,30.273,25.879,0
1539618584.841,30.762,37.109,38.086,25.879,-12.695,0
1539618584.844,37.109,45.410,35.645,27.344,36.621,0
1539618584.848,40.527,60.059,35.645,31.738,67.871,0
1539618584.852,35.156,55.176,28.320,30.273,17.090,0
1539618584.856,28.320,41.992,17.578,21.484,7.324,0
1539618584.860,25.391,44.922,18.555,21.484,10.254,0
1539618584.864,32.227,52.734,21.973,26.367,5.371,0
1539618584.868,38.086,46.387,27.832,23.926,34.180,0
1539618584.872,34.668,46.387,35.645,27.832,30.273,0
1539618584.876,32.227,48.828,33.203,25.391,16.602,0
1539618584.880,32.715,48.828,33.691,22.949,-1.953,0
1539618584.883,33.203,43.945,36.133,29.785,7.812,0
1539618584.887,29.297,33.203,31.738,26.367,57.617,0
1539618584.891,28.320,40.527,31.738,24.902,93.262,0
1539618584.895,25.879,45.410,31.250,23.438,35.156,0
1539618584.899,18.555,44.922,30.273,25.879,3.418,0
1539618584.903,36.621,43.457,30.762,31.250,20.020,0
1539618584.907,43.945,44.922,33.691,35.645,2.441,0
1539618584.911,31.250,53.223,33.203,35.645,61.035,0
1539618584.915,34.668,49.316,33.203,33.691,57.129,0
1539618584.919,38.574,49.316,38.574,36.133,7.812,0
1539618584.923,39.062,55.176,41.992,34.180,12.695,0
1539618584.926,37.109,49.805,36.621,35.645,64.453,0
1539618584.930,38.574,39.551,32.715,34.180,87.402,0
1539618584.934,37.598,33.691,34.180,24.902,60.059,0
1539618584.938,30.762,36.133,36.133,31.250,46.387,0
1539618584.942,21.973,32.227,39.551,33.203,8.789,0
1539618584.946,22.949,40.039,37.598,26.367,11.719,0
1539618584.950,20.020,45.410,25.879,23.926,43.945,0
1539618584.954,16.602,34.180,20.020,19.043,81.055,0
1539618584.958,25.879,30.762,25.879,18.066,110.840,0
1539618584.962,31.738,38.086,29.785,24.414,6.836,0
1539618584.966,29.785,42.969,30.762,27.344,-40.527,0
1539618584.969,33.691,39.551,23.438,27.832,31.738,0
1539618584.973,35.156,41.504,21.484,28.809,59.570,0
1539618584.977,33.203,39.551,31.738,28.809,34.668,0
1539618584.981,38.086,40.527,37.109,35.645,43.945,0
1539618584.985,41.504,39.551,30.762,37.598,49.316,0
1539618584.989,30.273,31.250,20.020,22.461,7.324,0
1539618584.993,25.879,31.738,28.320,22.461,5.371,0
1539618584.997,32.715,29.785,37.109,21.973,-3.906,0
1539618585.001,21.973,33.691,27.832,10.742,-1.953,0
1539618585.005,21.484,41.992,29.297,14.160,-23.438,0
1539618585.008,30.762,38.574,29.297,17.578,-1.953,0
1539618585.012,30.762,37.109,21.484,15.625,85.938,0
1539618585.016,29.785,37.109,28.809,19.531,66.895,0
1539618585.020,24.414,37.598,38.574,17.578,36.621,0
1539618585.024,10.254,37.598,40.527,4.395,36.133,0
1539618585.028,2.930,42.969,40.527,4.883,42.480,0
1539618585.032,0.488,44.922,41.992,7.812,31.250,0
1539618585.036,4.883,41.992,49.316,7.812,-14.648,0
1539618585.040,-0.488,43.457,47.363,2.441,17.578,0
1539618585.044,-8.789,45.410,41.992,-1.465,32.227,0
1539618585.048,1.953,47.852,44.434,-3.906,4.883,0
1539618585.051,4.395,44.922,47.852,-3.906,53.711,0
1539618585.055,3.906,49.805,46.875,0.977,75.195,0
1539618585.059,-4.395,47.852,39.551,-6.836,20.508,0
1539618585.063,0.000,38.086,45.410,-2.441,0.977,0
1539618585.067,9.766,41.016,54.199,5.371,43.945,0
1539618585.071,9.277,39.551,46.875,-1.465,40.039,0
1539618585.075,2.930,40.039,36.133,-6.348,18.555,0
1539618585.079,6.348,46.875,33.691,-0.977,-7.812,0
1539618585.083,12.695,41.992,28.809,5.859,13.672,0
1539618585.087,14.648,33.691,25.879,7.324,46.387,0
1539618585.091,20.508,44.434,38.574,13.184,8.301,0
1539618585.094,16.113,38.574,47.363,16.602,-0.488,0
1539618585.098,17.090,37.598,37.598,10.742,19.043,0
1539618585.102,15.137,44.434,30.273,9.766,5.859,0
1539618585.106,14.160,42.969,37.598,14.160,-2.441,0
1539618585.110,19.043,36.621,38.574,14.160,-55.664,0
1539618585.114,16.602,30.273,33.203,14.160,-55.176,0
1539618585.118,16.113,39.062,35.156,17.090,1.465,0
1539618585.122,25.879,41.992,36.621,28.809,40.527,0
1539618585.126,32.227,38.086,38.574,32.227,62.500,0
1539618585.130,27.344,37.109,36.621,28.320,33.203,0
1539618585.133,31.250,42.480,31.738,31.250,30.273,0
1539618585.137,40.039,48.340,36.621,34.180,19.531,0
1539618585.141,35.156,44.922,35.156,32.227,10.742,0
1539618585.145,29.785,44.922,31.738,28.809,48.828,0
1539618585.149,29.297,42.969,31.250,22.949,28.320,0
1539618585.153,29.785,39.551,29.297,24.902,87.402,0
1539618585.157,27.832,31.738,32.227,23.926,85.449,0
1539618585.161,24.414,34.180,30.273,17.090,51.758,0
1539618585.165,26.367,40.039,31.250,18.555,50.781,0
1539618585.169,20.996,27.832,36.621,17.578,9.766,0
1539618585.173,18.555,28.809,38.086,18.555,56.641,0
1539618585.176,29.297,41.504,40.039,22.949,88.867,0
1539618585.180,21.973,35.156,40.039,21.973,94.238,0
1539618585.184,11.230,29.785,37.109,20.020,71.289,0
1539618585.188,17.090,32.227,35.645,20.996,41.504,0
1539618585.192,19.531,30.762,31.250,23.926,41.016,0
1539618585.196,19.043,39.551,31.250,24.902,62.500,0
1539618585.200,26.367,34.180,29.785,22.949,44.922,0
1539618585.204,32.227,31.738,30.762,29.785,32.715,0
1539618585.208,33.203,41.992,37.109,39.062,-11.230,0
1539618585.212,24.902,38.574,35.156,31.250,2.441,0
1539618585.216,23.926,33.203,34.668,27.344,12.695,0
1539618585.219,37.598,35.156,41.504,30.273,-6.348,0
1539618585.223,36.133,39.062,39.551,24.902,15.625,0
1539618585.227,28.809,36.133,31.738,18.066,15.625,0
1539618585.231,34.180,38.086,34.668,26.367,31.738,0
1539618585.235,36.133,45.410,34.668,25.879,34.668,0
1539618585.239,31.738,40.527,33.203,21.484,48.340,0
1539618585.243,26.367,36.621,33.203,26.855,29.785,0
1539618585.247,26.367,42.480,30.273,28.809,-20.020,0
1539618585.251,27.344,40.527,32.227,28.809,-4.395,0
1539618585.255,27.344,39.062,32.227,30.273,20.020,0
1539618585.258,32.715,40.039,29.785,31.250,-1.465,0
1539618585.262,30.762,35.156,31.250,28.809,-2.930,0
1539618585.266,28.320,37.598,34.668,25.391,28.320,0
1539618585.270,36.621,42.480,40.527,30.762,54.199,0
1539618585.274,32.227,41.992,40.039,29.785,72.754,0
1539618585.278,22.949,42.969,35.156,22.461,64.453,0
1539618585.282,23.438,34.668,35.156,22.461,13.184,0
1539618585.286,22.949,31.250,37.109,24.414,-35.645,0
1539618585.290,26.367,32.715,36.133,28.320,0.000,0
1539618585.294,36.621,28.809,35.645,33.203,23.926,0
1539618585.298,38.086,32.227,33.203,37.598,77.148,0
1539618585.301,36.621,41.504,29.297,37.598,69.336,0
1539618585.305,49.805,48.340,38.574,41.504,38.086,0
1539618585.309,50.293,49.805,39.062,40.039,84.473,0
1539618585.313,45.898,51.758,24.414,38.574,71.289,0
1539618585.317,51.758,47.852,31.250,41.504,13.672,0
1539618585.321,55.176,41.016,43.457,43.945,1.465,0
1539618585.325,50.293,39.551,41.504,42.480,35.156,0
1539618585.329,45.898,46.875,37.109,41.504,68.359,0
1539618585.333,45.898,51.270,38.086,38.574,45.898,0
1539618585.337,35.645,47.363,35.156,28.320,37.598,0
1539618585.341,32.227,43.457,34.668,28.809,59.082,0
1539618585.344,31.738,37.598,37.109,25.391,60.547,0
1539618585.348,31.738,36.133,34.668,19.531,21.484,0
1539618585.352,32.227,37.109,36.133,18.066,15.137,0
1539618585.356,32.227,37.109,30.762,12.207,31.738,0
1539618585.360,27.344,37.598,28.809,18.066,-10.742,0
1539618585.364,35.645,40.039,33.203,30.762,-21.484,0
1539618585.368,35.156,41.504,33.203,33.691,7.324,0
1539618585.372,30.273,42.969,30.273,35.645,-1.953,0
1539618585.376,32.715,48.828,32.715,38.086,14.648,0
1539618585.380,29.785,41.992,36.621,38.086,14.648,0
1539618585.383,35.156,37.109,33.691,39.062,8.789,0
1539618585.387,33.203,39.551,32.227,38.574,29.297,0
1539618585.391,36.133,38.574,34.180,37.598,25.879,0
1539618585.395,45.410,30.762,35.156,35.156,30.762,0
1539618585.399,50.781,31.738,29.785,38.086,89.844,0
1539618585.403,44.434,37.109,26.855,43.457,49.316,0
1539618585.407,34.180,39.551,35.156,41.992,-34.668,0
1539618585.411,39.551,42.480,38.574,42.480,7.324,0
1539618585.415,46.387,38.086,36.133,46.387,28.320,0
1539618585.419,46.875,40.039,37.598,47.363,-1.465,1
1539618585.423,41.016,36.621,38.086,47.852,-25.879,0
1539618585.426,35.156,26.855,35.156,46.387,-3.906,0
1539618585.430,41.016,28.809,32.715,46.875,69.336,0
1539618585.434,42.480,26.855,33.203,45.898,97.168,0
1539618585.438,47.363,27.344,30.273,44.434,62.012,0
1539618585.442,52.734,27.344,30.273,43.945,51.270,0
1539618585.446,48.340,26.855,33.203,39.551,43.457,0
1539618585.450,49.316,35.645,35.645,39.551,27.832,0
1539618585.454,51.270,34.180,37.109,40.039,7.812,0
1539618585.458,53.711,37.598,37.109,41.504,48.340,0
1539618585.462,51.758,42.480,35.645,40.527,72.754,0
1539618585.466,40.039,42.480,32.715,39.551,43.457,0
1539618585.469,42.969,41.016,31.738,38.574,20.996,0
1539618585.473,47.363,39.062,34.668,40.039,29.297,0
1539618585.477,56.152,40.039,36.133,47.852,36.133,0
1539618585.481,55.664,33.691,33.203,43.945,10.254,0
1539618585.485,43.457,29.297,33.203,41.504,19.043,0
1539618585.489,49.316,36.133,36.133,42.480,41.504,0
1539618585.493,47.852,40.039,34.668,41.992,65.430,0
1539618585.497,44.922,43.457,30.762,45.410,-19.531,0
1539618585.501,54.199,52.734,36.133,48.828,-14.160,0
1539618585.505,47.852,48.340,39.062,42.969,86.426,0
1539618585.508,31.738,31.250,31.250,37.109,73.242,0
1539618585.512,32.715,29.785,31.738,41.016,34.180,0
1539618585.516,33.691,34.668,34.180,37.598,39.062,0
1539618585.520,40.039,36.133,34.180,38.086,31.250,0
1539618585.524,44.434,38.086,38.574,44.434,-18.555,0
1539618585.528,37.598,37.109,34.668,40.039,0.488,0
1539618585.532,30.762,35.645,31.738,34.180,34.668,0
1539618585.536,33.203,38.086,29.297,29.785,46.387,0
1539618585.540,44.434,46.875,32.715,39.551,16.602,0
1539618585.544,48.340,40.039,38.086,42.480,-7.812,0
1539618585.548,36.133,37.109,31.250,32.715,59.082,0
1539618585.551,36.133,42.969,31.738,34.668,61.523,0
1539618585.555,41.504,42.969,36.621,36.133,56.641,0
1539618585.559,34.180,43.457,37.598,37.598,47.363,0
1539618585.563,32.227,35.645,38.086,44.434,37.109,0
1539618585.567,42.969,36.621,36.621,42.969,48.828,0
1539618585.571,40.039,39.551,34.668,34.668,44.922,0
1539618585.575,38.574,44.434,38.574,39.551,1.953,0
1539618585.579,44.434,52.246,37.598,46.387,-57.129,0
1539618585.583,44.434,53.711,36.621,37.109,-10.742,0
1539618585.587,45.898,45.898,37.598,34.180,72.266,0
1539618585.591,36.621,28.809,34.180,32.227,58.594,0
1539618585.594,34.668,30.273,32.715,32.227,17.578,0
1539618585.598,32.227,45.410,34.668,30.273,-2.441,0
1539618585.602,30.273,44.922,27.344,33.203,-11.719,0
1539618585.606,36.621,40.527,25.879,36.133,-3.418,0
1539618585.610,38.086,39.551,37.598,35.156,12.207,0
1539618585.614,34.668,38.086,41.016,37.109,11.719,0
1539618585.618,28.809,31.250,43.457,39.551,22.949,0
1539618585.622,36.621,34.668,45.410,43.457,-4.395,0
1539618585.626,43.457,40.527,46.875,46.387,13.184,0
1539618585.630,40.527,34.668,41.992,43.945,32.715,0
1539618585.633,42.969,42.480,36.133,41.992,14.648,0
1539618585.637,39.551,41.016,32.715,32.715,12.695,0
1539618585.641,33.691,41.992,35.156,23.926,14.648,0
1539618585.645,43.945,53.711,41.992,30.762,-2.930,0
1539618585.649,36.621,44.434,32.227,27.832,22.461,0
1539618585.653,34.180,35.156,24.414,21.973,58.105,0
1539618585.657,34.180,36.133,30.273,24.902,-17.090,0
1539618585.661,31.738,38.086,27.832,26.855,32.227,0
1539618585.665,27.344,42.480,24.414,27.344,90.820,0
1539618585.669,27.344,41.016,32.715,30.273,16.113,0
1539618585.673,31.250,35.645,34.180,29.297,7.812,0
1539618585.676,19.531,36.133,29.297,25.391,52.734,0
1539618585.680,19.531,36.133,32.227,24.902,10.254,0
1539618585.684,30.273,35.645,35.645,23.926,16.113,0
1539618585.688,25.879,35.156,36.133,22.461,67.383,0
1539618585.692,21.973,34.180,37.109,25.879,83.984,0
1539618585.696,29.297,34.180,37.598,32.227,51.758,0
1539618585.700,29.785,25.391,36.621,33.203,20.996,0
1539618585.704,31.250,27.832,37.109,33.691,37.598,0
1539618585.708,34.668,36.133,36.621,35.645,44.434,0
1539618585.712,36.621,39.551,33.691,36.621,73.242,0
1539618585.716,31.250,41.504,34.180,36.621,68.359,0
1539618585.719,29.297,35.156,35.156,34.668,72.754,0
1539618585.723,39.062,36.621,39.551,31.738,70.312,0
1539618585.727,42.969,37.598,44.922,32.715,21.973,0
1539618585.731,32.715,38.086,37.598,25.879,34.668,0
1539618585.735,23.926,40.039,31.738,13.184,30.762,0
1539618585.739,24.902,40.527,32.715,15.625,-18.066,0
1539618585.743,28.320,45.410,33.691,18.555,7.812,0
1539618585.747,31.250,38.086,31.738,19.531,8.789,0
1539618585.751,33.203,45.410,31.250,26.367,15.137,0
1539618585.755,36.621,48.828,35.156,28.809,-0.488,0
1539618585.758,31.250,39.062,32.715,28.320,3.418,0
1539618585.762,23.926,40.527,29.785,26.367,73.242,0
1539618585.766,27.832,42.969,31.738,24.414,69.336,0
1539618585.770,31.250,41.992,35.156,27.832,51.270,0
1539618585.774,22.949,38.574,36.621,22.461,-6.836,0
1539618585.778,21.973,41.992,36.133,21.973,-12.207,0
1539618585.782,24.414,43.457,37.109,25.879,56.152,0
1539618585.786,20.996,41.504,37.109,25.879,33.203,0
1539618585.790,21.484,36.133,35.645,26.367,-16.602,0
1539618585.794,22.949,36.133,36.133,26.367,21.973,0
1539618585.798,20.508,34.668,37.109,25.391,61.523,0
1539618585.801,27.344,34.668,39.062,25.879,94.238,0
1539618585.805,35.156,45.410,41.504,32.715,79.102,0
1539618585.809,29.297,41.016,33.691,24.902,12.207,0
1539618585.813,25.879,31.250,31.250,15.625,-26.855,0
1539618585.817,24.902,31.738,34.668,15.625,0.488,0
1539618585.821,30.273,37.598,33.691,15.137,80.078,0
1539618585.825,36.133,42.480,31.250,15.137,49.316,0
1539618585.829,23.438,40.039,29.785,12.207,-15.625,0
1539618585.833,32.227,39.551,36.133,20.020,-1.465,0
1539618585.837,32.715,51.758,35.645,20.508,51.758,0
1539618585.841,21.973,48.828,24.414,12.695,82.520,0
1539618585.844,20.020,42.969,19.531,10.742,80.566,0
1539618585.848,20.996,44.434,27.832,9.766,29.785,0
1539618585.852,24.414,36.621,34.180,6.836,58.594,0
1539618585.856,23.926,38.574,33.691,6.836,39.551,0
1539618585.860,21.484,39.062,34.668,12.695,-20.508,0
1539618585.864,25.391,39.062,39.551,19.043,114.258,0
1539618585.868,30.762,39.062,38.086,24.902,117.188,0
1539618585.872,26.367,36.133,35.645,30.273,72.266,0
1539618585.876,35.645,35.645,37.109,35.156,86.914,0
1539618585.880,35.645,33.691,32.227,31.738,50.293,0
1539618585.883,35.645,34.668,31.250,37.109,26.367,0
1539618585.887,49.805,36.621,37.598,47.852,-13.672,0
1539618585.891,43.945,36.133,33.691,41.504,55.664,0
1539618585.895,34.180,37.109,27.832,35.156,102.051,0
1539618585.899,40.527,37.109,32.715,35.156,73.730,0
1539618585.903,39.551,34.668,35.645,32.227,20.996,0
1539618585.907,39.062,27.832,38.086,30.762,-54.199,0
1539618585.911,35.645,28.320,37.109,29.297,-42.969,0
1539618585.915,26.855,39.062,33.203,23.926,-17.090,0
1539618585.919,33.203,43.945,32.715,22.949,34.668,0
1539618585.923,39.062,38.086,30.273,26.855,36.621,0
1539618585.926,38.086,32.715,33.203,30.762,-5.859,0
1539618585.930,39.551,39.551,38.086,32.227,50.293,0
1539618585.934,49.316,44.922,38.574,36.621,71.289,0
1539618585.938,43.457,40.039,34.668,34.668,37.598,0
1539618585.942,33.203,35.645,31.738,32.227,-15.625,0
1539618585.946,43.457,30.273,34.668,35.156,-49.805,0
1539618585.950,41.016,28.809,36.621,36.621,-11.719,0
1539618585.954,38.086,33.203,41.504,45.898,-0.977,0
1539618585.958,41.504,35.645,42.969,48.828,34.180,0
1539618585.962,35.156,35.645,37.598,39.551,26.367,0
1539618585.966,33.203,30.762,34.668,34.668,-51.270,0
1539618585.969,33.203,26.367,36.133,33.203,-32.715,0
1539618585.973,31.738,32.715,37.109,33.203,13.672,0
1539618585.977,34.668,36.133,38.574,37.109,-12.207,0
1539618585.981,39.551,35.156,37.109,38.574,6.348,0
1539618585.985,36.133,31.250,33.691,34.668,104.492,0
1539618585.989,40.527,36.621,38.086,44.922,85.938,0
1539618585.993,49.805,44.434,41.992,50.781,14.160,0
1539618585.997,45.410,36.133,37.109,43.457,14.160,0
1539618586.001,39.062,32.715,31.738,40.039,29.785,0
1539618586.005,31.738,35.645,28.320,27.832,90.820,0
1539618586.008,23.438,37.109,23.438,19.531,77.148,0
1539618586.012,26.855,37.598,25.879,22.461,65.430,0
1539618586.016,34.180,39.062,33.691,29.297,90.332,0
1539618586.020,30.273,39.551,35.156,26.855,43.457,0
1539618586.024,30.762,37.598,39.062,23.438,63.477,0
1539618586.028,39.551,38.574,41.504,33.203,86.914,0
1539618586.032,36.621,40.527,35.156,31.250,54.688,0
1539618586.036,27.344,41.992,30.273,29.785,3.418,0
1539618586.040,34.180,41.992,31.250,33.691,-10.742,0
1539618586.044,37.598,42.480,34.668,31.738,75.195,0
1539618586.048,39.551,41.992,39.062,29.785,91.797,0
1539618586.051,38.574,44.434,39.551,31.738,57.617,0
1539618586.055,32.227,42.969,41.504,32.715,79.102,0
1539618586.059,33.691,34.668,41.016,30.762,42.969,0
1539618586.063,34.180,36.621,36.621,26.367,-0.977,0
1539618586.067,33.203,41.016,35.645,27.832,39.551,0
1539618586.071,38.086,38.086,30.273,34.668,55.176,0
1539618586.075,33.203,40.039,32.227,26.855,27.344,0
1539618586.079,23.438,41.992,37.598,19.043,29.785,0
1539618586.083,20.996,41.016,37.109,16.602,9.277,0
1539618586.087,18.066,43.945,36.621,12.695,11.230,0
1539618586.091,20.508,43.945,37.109,10.254,36.621,0
1539618586.094,20.020,47.363,40.527,6.836,58.105,0
1539618586.098,8.301,43.945,37.109,3.418,66.895,0
1539618586.102,3.906,35.156,33.691,-1.953,26.855,0
1539618586.106,3.418,38.086,33.203,-6.836,9.277,0
1539618586.110,9.277,47.363,34.668,-0.977,-10.254,0
1539618586.114,15.137,46.387,36.133,4.395,41.016,0
1539618586.118,20.020,42.969,34.180,9.277,49.316,0
1539618586.122,23.438,45.410,33.691,14.160,13.184,0
1539618586.126,23.438,46.387,36.621,13.184,9.766,0
1539618586.130,25.879,46.875,42.969,20.996,37.109,0
1539618586.133,25.879,41.504,41.504,22.949,39.551,0
1539618586.137,24.902,38.574,38.086,21.484,19.531,0
1539618586.141,27.344,41.992,38.574,32.227,29.785,0
1539618586.145,31.250,43.457,38.086,38.086,66.406,0
1539618586.149,34.668,37.598,38.086,28.320,77.637,0
1539618586.153,29.297,40.039,37.109,25.879,77.148,0
1539618586.157,30.273,45.898,39.551,28.809,60.059,0
1539618586.161,39.551,43.945,41.992,29.297,-1.953,0
1539618586.165,36.133,42.480,39.062,29.297,35.645,0
1539618586.169,41.992,49.316,37.598,30.273,95.215,0
1539618586.173,40.039,53.711,44.434,25.391,86.914,0
1539618586.176,25.391,51.758,49.805,21.484,81.543,0
1539618586.180,34.180,51.758,42.480,20.020,36.133,0
1539618586.184,28.320,48.828,41.016,11.230,-21.484,0
1539618586.188,9.766,41.992,41.992,0.000,23.926,0
1539618586.192,2.930,37.598,40.039,-3.906,8.789,0
1539618586.196,-0.977,38.574,41.504,-6.836,8.789,0
1539618586.200,1.953,40.039,42.480,-4.883,36.621,0
1539618586.204,7.324,39.551,42.480,3.418,13.672,0
1539618586.208,9.766,36.133,41.504,0.977,21.973,0
1539618586.212,3.418,36.133,38.086,-4.395,62.988,0
1539618586.216,5.371,41.016,42.480,3.906,74.707,0
1539618586.219,13.184,32.715,43.945,13.184,67.871,0
1539618586.223,12.207,28.320,41.992,16.113,52.734,0
1539618586.227,15.137,34.668,41.504,14.648,37.598,0
1539618586.231,13.184,29.297,39.062,13.672,52.734,0
1539618586.235,23.438,28.320,45.898,22.949,28.320,0
1539618586.239,31.250,32.227,44.434,22.461,67.871,0
1539618586.243,22.949,37.109,40.527,13.184,68.359,0
1539618586.247,26.367,40.527,44.434,18.555,8.301,0
1539618586.251,34.668,39.551,44.434,25.391,17.578,0
1539618586.255,34.180,41.992,41.992,22.461,-12.207,0
1539618586.258,30.762,34.180,39.551,16.602,-20.508,0
1539618586.262,32.227,37.598,36.621,16.602,28.809,0
1539618586.266,33.691,50.781,39.062,23.926,54.199,0
1539618586.270,33.203,42.480,41.992,25.879,78.613,0
1539618586.274,32.715,39.062,35.645,23.438,76.172,0
1539618586.278,35.645,41.016,36.621,27.344,27.344,0
1539618586.282,41.016,39.062,49.805,41.016,-12.207,0
1539618586.286,38.086,41.504,42.969,37.109,8.301,0
1539618586.290,33.203,34.668,33.691,30.762,23.926,0
1539618586.294,33.691,25.391,37.598,40.527,28.320,0
1539618586.298,32.715,34.668,39.551,41.016,55.664,0
1539618586.301,33.203,43.457,41.016,35.645,27.344,0
1539618586.305,24.902,40.527,36.133,33.203,34.668,0
1539618586.309,17.090,39.062,40.527,32.715,32.227,0
1539618586.313,28.809,34.668,43.457,33.691,-10.742,0
1539618586.317,21.973,24.414,40.527,30.762,-7.324,0
1539618586.321,20.020,33.691,41.992,27.344,38.086,0
1539618586.325,26.855,43.457,43.945,30.762,24.902,0
1539618586.329,26.367,33.691,40.039,35.645,-27.344,0
1539618586.333,30.273,32.227,38.086,35.156,-18.066,0
1539618586.337,31.250,39.551,43.457,33.203,-6.348,0
1539618586.341,22.461,37.109,36.621,26.367,18.555,0
1539618586.344,25.391,39.062,39.062,26.855,44.434,0
1539618586.348,25.879,41.504,36.133,23.926,37.598,0
1539618586.352,22.949,38.574,30.762,19.531,30.273,0
1539618586.356,23.926,34.180,32.227,21.973,-27.832,0
1539618586.360,30.273,37.598,34.668,21.973,17.090,0
1539618586.364,18.066,41.016,34.180,14.160,60.059,0
1539618586.368,12.207,39.551,33.691,20.508,45.898,0
1539618586.372,29.297,42.480,41.016,33.691,27.832,0
1539618586.376,23.926,36.621,41.504,29.297,-4.883,0
1539618586.380,15.137,28.809,32.715,20.020,45.410,0
1539618586.383,20.508,33.691,31.250,19.043,35.645,0
1539618586.387,23.438,33.203,33.203,22.461,-30.762,0
1539618586.391,27.832,37.598,32.715,32.715,16.602,0
1539618586.395,32.715,41.992,33.203,32.227,53.711,0
1539618586.399,30.762,41.992,35.645,30.273,16.602,0
1539618586.403,34.180,37.109,38.574,41.992,19.043,0
1539618586.407,32.715,30.762,41.504,38.574,103.516,0
1539618586.411,30.762,37.109,41.992,31.250,92.773,0
1539618586.415,35.645,32.715,40.039,35.156,-11.230,0
1539618586.419,29.785,26.367,33.691,28.320,12.695,0
1539618586.423,27.344,26.367,30.762,17.578,64.453,0
1539618586.426,29.785,29.785,32.715,16.113,19.531,0
1539618586.430,35.156,37.109,31.738,17.578,49.316,0
1539618586.434,35.645,39.062,32.227,14.160,51.758,0
1539618586.438,37.598,42.480,31.250,15.625,26.855,0
1539618586.442,33.203,40.527,32.227,23.438,5.859,0
1539618586.446,24.414,35.156,35.645,30.273,-26.367,0
1539618586.450,28.809,36.133,38.574,31.250,-31.250,0
1539618586.454,27.832,34.180,34.180,24.902,-19.531,0
1539618586.458,22.949,37.598,26.855,26.855,30.762,0
1539618586.462,23.926,43.945,30.762,24.902,60.547,0
1539618586.466,17.578,41.504,37.598,18.066,40.527,0
1539618586.469,12.695,39.062,43.457,17.090,16.113,0
1539618586.473,20.996,40.039,42.969,16.113,-6.836,0
1539618586.477,21.484,38.086,42.480,12.695,44.922,0
1539618586.481,22.461,35.156,39.062,9.277,39.062,0
1539618586.485,20.996,39.062,36.133,14.160,22.461,0
1539618586.489,17.578,37.598,38.574,16.602,44.434,0
1539618586.493,17.090,35.156,40.039,17.090,35.156,0
1539618586.497,19.531,33.203,42.480,20.508,59.570,0
1539618586.501,33.203,37.109,46.875,29.297,-16.602,0
1539618586.505,34.668,37.598,45.410,35.645,-38.086,0
1539618586.508,29.297,30.273,40.527,31.250,48.340,0
1539618586.512,34.180,32.227,40.527,31.738,33.691,0
1539618586.516,37.598,35.645,38.574,34.668,19.531,0
1539618586.520,35.156,37.598,36.133,38.086,83.008,0
1539618586.524,39.551,33.691,40.527,36.621,29.785,0
1539618586.528,45.898,34.668,41.016,33.691,8.301,0
1539618586.532,47.363,37.598,39.062,38.086,52.734,0
1539618586.536,42.480,39.062,42.969,37.598,46.387,0
1539618586.540,34.180,42.969,41.504,29.297,40.527,0
1539618586.544,35.156,36.133,38.574,30.273,25.879,0
1539618586.548,37.598,31.738,40.527,35.645,24.902,0
1539618586.551,40.039,38.574,39.551,35.156,40.039,0
1539618586.555,35.156,37.598,37.109,30.273,47.852,0
1539618586.559,30.273,36.621,37.109,23.926,20.996,0
1539618586.563,32.715,40.039,41.016,31.250,29.297,0
1539618586.567,34.180,29.785,40.527,36.621,11.719,0
1539618586.571,39.062,24.902,31.738,35.645,11.719,0
1539618586.575,49.805,48.828,35.156,43.945,58.105,0
1539618586.579,43.945,50.293,40.527,39.062,71.777,0
1539618586.583,35.156,40.039,35.645,34.668,29.785,0
1539618586.587,39.062,41.016,38.086,40.039,23.438,0
1539618586.591,35.645,37.598,36.133,35.156,2.441,0
1539618586.594,37.109,33.691,31.250,31.738,44.434,0
1539618586.598,39.062,32.227,28.320,32.715,64.941,0
1539618586.602,32.227,31.738,29.785,35.645,67.871,0
1539618586.606,30.273,27.832,41.992,40.039,30.273,0
1539618586.610,37.109,29.297,44.922,35.156,2.930,0
1539618586.614,44.922,32.715,43.457,36.133,24.902,0
1539618586.618,42.969,35.645,42.969,41.016,30.762,0
1539618586.622,30.273,31.250,34.180,29.785,44.922,0
1539618586.626,28.809,26.855,29.297,22.949,-20.508,0
1539618586.630,32.715,33.203,34.180,26.855,25.879,0
1539618586.633,32.227,36.621,38.574,30.273,25.391,0
1539618586.637,24.902,33.203,37.598,32.227,-17.578,0
1539618586.641,23.926,32.715,38.086,35.156,9.766,0
1539618586.645,26.367,40.527,31.738,35.645,68.359,0
1539618586.649,27.344,43.945,32.715,35.645,105.957,0
1539618586.653,28.320,31.738,37.109,35.156,59.570,0
1539618586.657,27.344,23.926,37.598,35.645,18.066,0
1539618586.661,34.180,31.738,41.504,38.086,-1.465,0
1539618586.665,39.551,32.715,34.180,31.738,20.996,0
1539618586.669,47.852,37.109,41.016,37.109,41.992,0
1539618586.673,48.340,40.527,46.387,36.133,-8.301,0
1539618586.676,33.203,37.109,35.156,27.344,-0.488,0
1539618586.680,26.855,32.227,27.832,27.344,-20.508,0
1539618586.684,29.297,25.879,30.273,27.832,-5.371,0
1539618586.688,24.902,27.344,36.133,26.855,93.750,0
1539618586.692,26.855,34.180,38.574,30.762,67.383,0
1539618586.696,32.227,31.738,39.062,33.203,32.715,0
1539618586.700,30.762,25.391,35.156,29.785,63.477,0
1539618586.704,34.668,24.414,34.180,34.180,68.848,0
1539618586.708,35.156,31.738,35.645,30.762,53.223,0
1539618586.712,27.832,44.922,32.715,22.461,62.012,0
1539618586.716,35.156,40.527,36.621,24.414,39.062,0
1539618586.719,39.062,29.785,45.898,34.180,23.926,0
1539618586.723,28.809,30.762,38.086,32.715,46.875,0
1539618586.727,31.738,35.156,24.902,27.832,94.727,0
1539618586.731,24.414,37.109,24.414,22.949,68.848,0
1539618586.735,17.090,34.180,30.762,16.602,16.602,0
1539618586.739,23.438,27.344,31.738,20.508,44.922,0
1539618586.743,25.391,33.691,31.250,22.461,-29.785,0
1539618586.747,25.391,39.062,31.250,20.996,-1.465,0
1539618586.751,28.809,35.156,30.273,26.855,88.867,0
1539618586.755,40.039,34.668,32.715,30.762,70.801,2
1539618586.758,41.504,40.039,33.691,30.273,85.938,0
1539618586.762,35.156,37.598,36.133,22.949,116.211,0
1539618586.766,38.086,35.156,33.691,19.531,117.676,0
1539618586.770,42.969,43.457,28.320,34.668,107.910,0
1539618586.774,44.922,45.410,29.297,40.039,61.035,0
1539618586.778,41.992,40.039,28.320,36.621,15.137,0
1539618586.782,40.039,38.574,27.344,35.645,6.348,0
1539618586.786,41.016,40.039,27.832,38.574,40.039,0
1539618586.790,42.969,37.109,29.297,46.875,40.527,0
1539618586.794,43.457,31.250,29.297,47.363,31.738,0
1539618586.798,39.551,32.227,29.785,46.387,13.672,0
1539618586.801,45.898,36.621,33.691,51.270,25.391,0
1539618586.805,54.688,37.598,37.109,55.176,23.926,0
1539618586.809,55.664,39.551,39.062,48.828,-7.812,0
1539618586.813,54.199,41.504,40.039,49.316,42.480,0
1539618586.817,51.270,33.203,37.109,46.875,86.426,0
1539618586.821,45.898,30.762,30.762,41.992,33.203,0
1539618586.825,38.574,32.715,27.344,38.574,18.555,0
1539618586.829,31.250,34.180,27.832,34.668,57.617,0
1539618586.833,35.156,37.109,33.203,33.203,45.898,0
1539618586.837,39.551,33.203,35.156,37.109,54.199,0
1539618586.841,36.621,27.832,29.297,37.109,73.242,0
1539618586.844,38.574,31.738,26.855,34.180,34.180,0
1539618586.848,40.527,35.645,31.250,36.133,-23.438,0
1539618586.852,40.527,30.273,41.016,37.109,-64.453,0
1539618586.856,41.504,30.273,41.016,36.133,-30.762,0
1539618586.860,49.316,33.691,33.203,34.180,24.414,0
1539618586.864,45.898,34.180,32.715,35.156,20.508,0
1539618586.868,36.133,30.273,34.668,38.574,-4.395,0
1539618586.872,42.480,34.668,33.203,38.574,3.906,0
1539618586.876,38.086,37.598,31.250,35.645,47.852,0
1539618586.880,43.457,34.668,36.621,37.598,77.148,0
1539618586.883,60.059,37.598,44.434,48.828,44.922,0
1539618586.887,51.758,33.691,39.062,47.363,-15.137,0
1539618586.891,21.973,24.414,26.855,37.109,-13.184,0
1539618586.895,21.973,26.855,24.902,32.227,-8.301,0
1539618586.899,34.180,29.297,29.785,34.180,5.371,0
1539618586.903,37.598,34.668,31.250,32.715,72.754,0
1539618586.907,33.203,34.180,33.203,36.133,87.891,0
1539618586.911,43.945,35.645,32.227,50.293,39.062,0
1539618586.915,48.340,41.016,29.297,44.922,12.207,0
1539618586.919,41.016,38.574,34.668,35.156,15.625,0
1539618586.923,48.340,37.598,39.062,31.738,9.766,0
1539618586.926,37.109,36.133,39.062,29.785,41.992,0
1539618586.930,32.227,34.668,39.062,31.250,96.191,0
1539618586.934,34.668,35.645,35.645,29.785,56.641,0
1539618586.938,44.434,39.062,37.598,37.598,4.883,0
1539618586.942,49.805,40.527,40.527,41.016,51.270,0
1539618586.946,40.039,37.109,35.156,33.203,77.637,0
1539618586.950,31.738,38.086,29.297,29.785,44.922,0
1539618586.954,36.133,30.762,34.668,36.133,-11.719,0
1539618586.958,46.875,29.785,41.992,48.340,57.617,0
1539618586.962,47.852,37.109,45.410,49.316,128.418,0
1539618586.966,38.086,27.832,37.598,41.016,53.223,0
1539618586.969,40.527,25.391,36.621,42.480,-24.902,0
1539618586.973,43.457,37.598,48.828,47.363,-27.344,0
1539618586.977,36.621,44.434,42.480,41.016,42.969,0
1539618586.981,36.133,40.039,36.621,39.551,43.945,0
1539618586.985,39.551,36.621,38.574,44.922,3.418,0
1539618586.989,37.109,29.297,28.809,42.480,-9.277,0
1539618586.993,35.156,30.273,26.367,37.598,33.691,0
1539618586.997,35.156,37.598,34.668,33.691,38.574,0
1539618587.001,36.621,35.645,40.039,37.109,-0.977,0
1539618587.005,45.410,38.574,43.457,43.945,21.973,0
1539618587.008,42.969,38.086,38.086,34.668,72.266,0
1539618587.012,40.527,24.902,39.062,36.133,60.059,0
1539618587.016,46.875,25.879,41.992,38.086,15.137,0
1539618587.020,41.016,35.645,36.621,26.367,65.430,0
1539618587.024,34.668,41.504,34.668,25.391,58.105,0
1539618587.028,40.039,45.410,36.133,35.156,-40.039,0
1539618587.032,37.598,37.109,41.016,43.457,-60.059,0
1539618587.036,34.668,34.668,41.504,40.527,-13.672,0
1539618587.040,29.785,38.086,39.062,37.598,1.953,0
1539618587.044,29.785,41.016,41.504,41.016,15.625,0
1539618587.048,37.598,36.133,43.457,42.969,16.602,0
1539618587.051,40.039,30.273,43.457,41.504,-13.184,0
1539618587.055,46.387,38.086,47.363,43.457,7.812,0
1539618587.059,52.734,44.434,53.711,50.293,29.785,0
1539618587.063,46.875,44.434,48.340,49.316,16.113,0
1539618587.067,42.480,42.480,36.133,41.504,20.508,0
1539618587.071,38.086,41.992,29.297,36.621,-3.906,0
1539618587.075,38.086,41.504,30.273,32.227,-10.742,0
1539618587.079,41.504,39.062,36.133,36.621,33.203,0
1539618587.083,37.109,36.621,36.133,36.133,38.574,0
1539618587.087,41.992,39.062,36.133,33.203,96.680,0
1539618587.091,41.016,41.504,39.551,35.645,124.023,0
1539618587.094,36.621,33.691,37.598,27.832,40.527,0
1539618587.098,40.039,34.668,35.156,25.391,63.965,0
1539618587.102,36.133,37.598,36.621,30.273,56.641,0
1539618587.106,30.762,37.598,35.645,27.832,56.152,0
1539618587.110,31.250,41.504,33.691,24.414,54.199,0
1539618587.114,36.133,41.016,37.109,26.367,-33.691,0
1539618587.118,37.109,41.016,38.574,30.762,-62.988,0
1539618587.122,30.273,42.480,33.691,23.438,-24.902,0
1539618587.126,32.715,39.551,34.180,22.949,-14.160,0
1539618587.130,40.527,32.227,42.480,30.273,5.371,0
1539618587.133,37.598,35.156,40.527,31.250,46.387,0
1539618587.137,36.133,43.945,35.645,30.273,33.203,0
1539618587.141,34.668,42.480,33.203,26.855,44.922,0
1539618587.145,28.320,36.133,25.879,24.902,47.363,0
1539618587.149,31.738,36.621,25.391,27.344,105.957,0
1539618587.153,38.086,45.898,34.180,33.203,89.844,0
1539618587.157,40.039,47.363,38.086,37.598,-3.418,0
1539618587.161,40.039,42.969,35.156,33.691,4.883,0
1539618587.165,36.621,34.180,36.133,34.668,43.945,0
1539618587.169,38.086,35.156,38.086,35.156,39.062,0
1539618587.173,45.410,36.621,39.062,30.762,64.941,0
1539618587.176,38.086,34.180,35.156,35.156,56.641,0
1539618587.180,33.203,37.598,31.738,33.203,57.129,0
1539618587.184,40.039,39.551,33.203,22.949,86.914,0
1539618587.188,33.691,36.621,31.250,22.461,1.953,0
1539618587.192,29.297,35.156,30.273,25.391,5.371,0
1539618587.196,38.086,32.715,35.156,23.926,23.438,0
1539618587.200,41.016,33.691,36.621,30.273,39.551,0
1539618587.204,35.156,38.086,33.203,31.738,62.988,0
1539618587.208,27.344,36.621,34.668,29.785,46.387,0
1539618587.212,28.320,37.109,39.551,33.691,52.734,0
1539618587.216,31.738,35.156,35.156,35.156,45.898,0
1539618587.219,36.621,34.668,40.527,38.574,23.438,0
1539618587.223,47.363,44.922,48.828,46.875,52.734,0
1539618587.227,51.270,36.621,41.504,48.340,25.391,0
1539618587.231,41.016,29.785,37.109,38.086,-0.977,0
1539618587.235,31.250,40.039,33.203,31.250,55.176,0
1539618587.239,36.133,41.016,30.273,36.621,48.340,0
1539618587.243,40.527,40.527,36.621,41.016,25.879,0
1539618587.247,40.039,41.504,40.527,39.062,52.246,0
1539618587.251,41.504,37.598,28.320,33.203,81.055,0
1539618587.255,41.016,35.156,34.668,36.133,82.031,0
1539618587.258,33.691,40.039,42.969,41.504,35.156,0
1539618587.262,24.902,39.551,42.480,32.227,11.230,0
1539618587.266,18.066,38.086,44.922,17.578,66.895,0
1539618587.270,15.137,39.551,43.457,13.672,68.359,0
1539618587.274,16.602,35.645,43.945,18.555,16.113,0
1539618587.278,14.648,37.109,40.527,16.113,-7.812,0
1539618587.282,21.484,38.086,38.086,17.578,6.836,0
1539618587.286,17.090,26.855,37.109,26.367,20.996,0
1539618587.290,19.531,30.762,35.156,23.926,80.566,0
1539618587.294,25.879,49.805,37.598,27.832,78.613,0
1539618587.298,37.598,50.293,46.387,46.875,45.410,0
1539618587.301,43.457,45.410,40.039,48.828,28.809,0
1539618587.305,24.902,41.016,28.320,30.273,-12.207,0
1539618587.309,14.160,28.809,31.250,19.043,19.043,0
1539618587.313,20.508,34.180,36.133,25.391,52.246,0
1539618587.317,30.273,38.086,37.598,27.832,54.688,0
1539618587.321,32.715,35.645,40.527,23.926,46.387,0
1539618587.325,30.762,39.551,40.527,24.902,46.387,0
1539618587.329,33.203,38.574,36.133,25.879,70.801,0
1539618587.333,34.180,35.645,35.645,23.926,70.801,0
1539618587.337,29.785,43.945,40.039,25.391,37.109,0
1539618587.341,35.156,50.293,37.598,26.367,51.758,0
1539618587.344,38.574,34.668,36.621,24.414,13.672,0
1539618587.348,27.344,24.414,40.039,23.438,11.719,0
1539618587.352,27.832,39.551,35.156,28.809,70.312,0
1539618587.356,39.062,48.340,24.902,35.156,43.457,0
1539618587.360,39.551,43.457,25.391,31.738,-16.602,0
1539618587.364,51.270,42.969,43.945,34.668,19.531,0
1539618587.368,62.500,49.316,49.805,46.875,47.852,0
1539618587.372,50.781,54.199,39.062,45.898,31.738,0
1539618587.376,49.805,42.969,38.086,39.062,6.348,0
1539618587.380,45.410,34.180,36.621,33.691,20.996,0
1539618587.383,31.738,37.598,35.645,34.180,45.410,0
1539618587.387,31.250,39.062,40.039,38.086,30.762,0
1539618587.391,42.480,38.086,37.598,35.645,52.246,0
1539618587.395,43.457,39.062,36.621,35.156,63.965,0
1539618587.399,33.203,38.086,41.992,39.062,49.316,0
1539618587.403,39.551,35.645,40.039,44.922,38.086,0
1539618587.407,44.922,33.691,37.598,42.969,-12.207,0
1539618587.411,50.293,32.715,33.691,43.457,-36.133,0
1539618587.415,50.781,37.598,34.668,49.316,23.926,0
1539618587.419,50.293,36.133,35.156,48.340,59.570,0
1539618587.423,52.246,31.738,33.691,48.828,55.664,0
1539618587.426,56.152,33.203,36.133,49.805,53.711,0
1539618587.430,55.176,35.645,36.621,46.875,17.090,0
1539618587.434,42.969,37.109,33.203,42.480,20.508,0
1539618587.438,34.668,37.109,32.715,39.551,74.707,0
1539618587.442,33.691,38.574,35.645,36.621,52.246,0
1539618587.446,38.086,35.156,32.715,34.668,40.039,0
1539618587.450,44.434,40.039,38.086,40.527,51.270,0
1539618587.454,50.781,43.945,45.898,48.828,60.059,0
1539618587.458,42.969,30.762,37.598,46.875,56.641,0
1539618587.462,35.645,28.320,35.156,42.480,65.918,0
1539618587.466,36.621,30.762,37.598,40.527,99.121,0
1539618587.469,37.598,32.227,39.551,39.062,48.828,0
1539618587.473,35.645,34.668,38.086,33.203,32.715,0
1539618587.477,41.016,32.227,38.574,40.527,99.609,0
1539618587.481,49.805,36.133,41.992,48.340,50.781,0
1539618587.485,51.758,41.504,38.574,41.504,20.508,0
1539618587.489,41.016,41.016,32.715,33.691,38.574,0
1539618587.493,36.133,35.645,22.949,35.645,-25.391,0
1539618587.497,44.434,31.250,22.461,38.574,-43.457,0
1539618587.501,41.016,32.715,29.297,41.016,24.902,0
1539618587.505,41.992,41.504,32.715,41.504,52.734,0
1539618587.508,44.434,48.828,36.621,45.898,22.461,0
1539618587.512,46.387,43.457,40.527,46.875,15.137,0
1539618587.516,45.410,39.551,38.086,36.133,35.156,0
1539618587.520,40.039,44.434,35.645,35.645,40.039,0
1539618587.524,37.109,38.574,28.320,30.762,23.926,0
1539618587.528,41.504,36.133,25.879,24.902,26.855,0
1539618587.532,48.340,44.922,36.133,24.902,35.156,0
1539618587.536,41.016,48.340,37.598,20.996,31.250,0
1539618587.540,38.086,42.480,34.668,19.531,-14.160,0
1539618587.544,44.434,39.062,37.598,26.367,-61.035,0
1539618587.548,40.039,32.715,36.621,26.855,-25.391,0
1539618587.551,25.879,31.738,31.250,20.508,2.441,0
1539618587.555,25.879,33.691,30.273,29.785,34.180,0
1539618587.559,30.762,27.344,36.133,33.203,61.035,0
1539618587.563,27.832,34.668,36.133,25.879,43.945,0
1539618587.567,22.949,37.109,36.133,25.879,38.574,0
1539618587.571,27.344,35.156,40.039,32.227,20.020,0
1539618587.575,28.320,41.504,38.086,37.598,35.645,0
1539618587.579,25.879,32.227,36.621,33.203,39.551,0
1539618587.583,27.832,28.809,36.621,28.320,17.090,0
1539618587.587,33.203,38.574,31.738,32.715,-4.883,0
1539618587.591,34.668,44.434,33.691,39.062,-7.324,0
1539618587.594,31.250,37.598,38.574,32.715,46.875,0
1539618587.598,36.621,34.180,40.039,36.133,74.219,0
1539618587.602,42.480,41.504,42.969,41.992,81.543,0
1539618587.606,46.387,39.551,36.133,38.574,59.082,0
1539618587.610,37.109,41.016,30.762,34.668,48.340,0
1539618587.614,27.344,42.480,35.645,32.715,84.473,0
1539618587.618,29.785,40.527,41.016,32.715,66.406,0
1539618587.622,30.273,40.527,38.574,24.414,62.500,0
1539618587.626,34.668,40.039,35.645,22.949,57.129,0
1539618587.630,30.762,43.945,34.180,25.879,16.602,0
1539618587.633,34.180,44.434,33.691,28.320,-7.812,0
1539618587.637,42.969,41.504,40.527,29.297,15.625,0
1539618587.641,36.133,46.875,39.551,25.879,31.738,0
1539618587.645,33.203,42.480,31.250,23.926,80.566,0
1539618587.649,32.227,34.180,35.156,17.578,56.641,0
1539618587.653,38.086,45.410,35.156,20.508,-23.438,0
1539618587.657,41.504,47.363,34.180,32.227,78.613,0
1539618587.661,32.715,36.133,41.504,32.715,66.895,0
1539618587.665,36.133,39.551,42.969,36.133,-17.090,0
1539618587.669,37.598,45.898,37.109,36.133,6.348,0
1539618587.673,31.250,44.922,36.621,31.738,57.617,0
1539618587.676,31.738,41.504,41.016,35.156,72.754,0
1539618587.680,38.086,41.992,42.480,41.992,20.508,0
1539618587.684,38.086,45.410,42.480,39.062,-8.301,0
1539618587.688,33.203,43.945,42.969,35.156,46.875,0
1539618587.692,39.551,40.527,45.410,41.504,29.785,0
1539618587.696,47.363,47.363,45.898,40.039,31.738,0
1539618587.700,43.945,54.199,48.828,40.039,21.973,0
1539618587.704,40.039,42.480,39.062,41.992,15.625,0
1539618587.708,38.574,30.273,30.762,39.062,53.711,0
1539618587.712,40.039,33.691,38.086,33.691,105.957,0
1539618587.716,36.133,36.621,41.504,36.133,95.703,0
1539618587.719,41.992,37.598,49.316,48.828,15.137,0
1539618587.723,43.457,39.062,49.316,43.945,6.836,0
1539618587.727,36.133,42.969,37.598,31.738,-32.715,0
1539618587.731,41.504,51.758,36.133,37.598,-18.555,0
1539618587.735,38.574,38.086,32.715,36.621,30.762,0
1539618587.739,31.738,38.574,34.668,33.691,48.828,0
1539618587.743,33.203,41.504,34.668,32.715,42.480,0
1539618587.747,40.527,39.551,34.180,35.156,40.527,0
1539618587.751,45.410,42.480,39.551,44.434,21.973,0
1539618587.755,37.109,38.086,41.504,40.039,16.113,0
1539618587.758,34.180,39.551,41.016,28.809,-47.363,0
1539618587.762,46.875,41.016,39.551,31.250,-67.383,0
1539618587.766,39.062,38.574,41.992,38.086,-0.977,0
1539618587.770,26.367,40.039,41.992,33.203,8.301,0
1539618587.774,27.832,41.992,39.551,27.344,14.160,0
1539618587.778,28.320,43.945,36.133,25.391,36.621,0
1539618587.782,26.367,39.551,34.668,22.461,46.875,0
1539618587.786,28.809,37.109,36.621,23.926,49.316,0
1539618587.790,31.250,45.410,36.621,33.203,-0.488,0
1539618587.794,29.297,45.410,34.668,28.809,49.805,0
1539618587.798,25.879,43.945,33.691,26.367,62.988,0
1539618587.801,25.879,51.270,37.109,27.832,17.090,0
1539618587.805,25.391,44.434,36.621,26.855,53.223,0
1539618587.809,29.785,34.668,37.598,32.227,-2.930,0
1539618587.813,28.809,36.621,34.668,31.250,-31.250,0
1539618587.817,27.832,34.668,27.344,27.344,24.414,0
1539618587.821,27.832,38.086,27.832,24.902,9.277,0
1539618587.825,20.996,39.551,36.133,27.832,-19.043,0
1539618587.829,20.996,39.551,36.133,26.367,3.418,0
1539618587.833,24.902,38.086,35.645,24.902,39.551,0
1539618587.837,31.738,34.180,42.969,32.227,34.180,0
1539618587.841,32.715,37.598,42.480,35.156,8.789,0
1539618587.844,28.320,38.086,40.039,32.227,13.672,0
1539618587.848,18.555,38.086,38.086,24.902,4.395,0
1539618587.852,30.762,39.062,39.551,31.738,9.766,0
1539618587.856,36.621,38.574,40.527,40.527,42.480,0
1539618587.860,24.902,37.109,41.016,34.180,59.082,0
1539618587.864,23.438,38.086,37.109,26.367,41.504,0
1539618587.868,26.367,41.992,37.109,29.785,-9.277,0
1539618587.872,26.855,37.598,40.527,34.180,-16.602,0
1539618587.876,25.879,38.086,35.156,32.715,-0.977,0
1539618587.880,29.785,37.598,34.668,37.109,16.602,0
1539618587.883,28.809,34.668,32.715,38.574,2.441,0
1539618587.887,25.391,36.621,34.180,30.762,-7.324,0
1539618587.891,25.879,34.180,32.227,26.855,17.090,0
1539618587.895,17.578,39.551,24.414,24.902,8.301,0
1539618587.899,17.578,41.992,34.668,21.484,46.387,0
1539618587.903,13.672,38.574,40.039,19.531,16.602,0
1539618587.907,13.184,38.574,36.133,20.996,28.809,0
1539618587.911,26.367,42.969,39.062,28.320,30.273,0
1539618587.915,28.320,37.598,39.551,32.715,-18.066,0
1539618587.919,25.879,33.691,38.086,27.832,8.301,0
1539618587.923,23.926,41.504,39.062,29.785,44.434,0
1539618587.926,29.297,41.504,31.250,35.645,62.988,0
1539618587.930,34.180,41.016,29.785,31.738,17.578,0
1539618587.934,28.809,38.086,32.715,24.902,9.766,0
1539618587.938,29.297,36.133,37.109,27.344,37.598,0
1539618587.942,24.414,33.203,38.574,28.320,47.363,0
1539618587.946,25.391,32.715,40.039,25.879,56.152,0
1539618587.950,28.809,39.551,36.133,26.367,29.785,0
1539618587.954,21.973,41.992,32.715,24.414,44.434,0
1539618587.958,20.996,32.715,34.668,20.996,55.176,0
1539618587.962,32.227,33.203,37.109,24.414,87.891,0
1539618587.966,30.762,39.062,40.039,25.879,73.730,0
1539618587.969,20.996,38.574,35.156,24.414,32.715,0
1539618587.973,24.414,40.039,34.668,24.902,41.504,0
1539618587.977,30.762,36.621,36.133,23.926,64.453,0
1539618587.981,25.879,41.016,35.645,25.391,65.918,0
1539618587.985,20.996,40.039,37.598,27.344,28.809,0
1539618587.989,31.738,36.133,43.945,32.227,90.332,0
1539618587.993,38.574,46.387,42.480,34.180,84.473,0
1539618587.997,32.227,44.922,31.250,26.855,61.523,0
1539618588.001,29.297,44.434,32.715,32.227,103.027,0
1539618588.005,46.387,44.922,34.180,42.969,105.957,0
1539618588.008,45.410,40.039,29.785,38.574,50.293,1
1539618588.012,28.809,41.016,34.668,28.809,13.184,0
1539618588.016,27.832,41.016,38.086,26.367,-31.738,0
1539618588.020,29.785,38.086,38.574,27.344,10.742,0
1539618588.024,33.691,32.715,41.992,21.484,67.871,0
1539618588.028,31.738,38.574,42.969,23.926,6.836,0
1539618588.032,24.902,36.133,43.457,26.367,-61.523,0
1539618588.036,24.414,32.227,41.992,16.602,-20.508,0
1539618588.040,19.043,38.086,39.551,14.160,43.457,0
1539618588.044,18.066,39.062,41.992,19.531,60.059,0
1539618588.048,22.949,36.133,45.898,19.531,56.152,0
1539618588.051,25.391,34.668,47.363,21.973,-9.277,0
1539618588.055,26.855,32.715,44.922,22.461,-10.742,0
1539618588.059,29.297,31.738,42.969,24.902,12.207,0
1539618588.063,34.180,35.156,44.434,35.645,16.602,0
1539618588.067,31.250,32.715,39.551,30.273,29.785,0
1539618588.071,22.949,32.227,34.180,22.949,41.504,0
1539618588.075,19.043,34.668,34.668,25.391,34.668,0
1539618588.079,18.066,41.504,41.992,31.738,-5.371,0
1539618588.083,18.066,38.574,42.480,31.250,20.020,0
1539618588.087,15.625,27.344,34.668,24.902,77.148,0
1539618588.091,20.020,25.879,36.621,31.250,53.711,0
1539618588.094,29.297,30.273,43.945,34.668,-7.324,0
1539618588.098,28.809,33.203,34.180,26.855,14.648,0
1539618588.102,22.461,35.156,27.832,20.508,63.965,0
1539618588.106,26.855,37.598,34.668,28.320,-29.785,0
1539618588.110,33.691,37.109,37.598,34.668,-1.953,0
1539618588.114,32.227,38.086,41.016,28.809,83.984,0
1539618588.118,31.250,36.133,39.062,30.273,77.148,0
1539618588.122,41.016,36.621,36.133,33.203,60.059,0
1539618588.126,35.645,35.156,38.574,27.344,43.457,0
1539618588.130,28.809,31.738,37.598,23.438,23.438,0
1539618588.133,35.156,40.527,36.621,26.367,-4.395,0
1539618588.137,34.180,48.340,44.922,34.180,30.762,0
1539618588.141,35.645,38.574,50.781,38.574,64.453,0
1539618588.145,30.762,31.738,43.945,35.645,-16.602,0
1539618588.149,28.320,37.109,39.551,32.715,-25.879,0
1539618588.153,33.203,39.551,41.016,36.133,38.574,0
1539618588.157,34.180,31.250,38.574,40.527,22.949,0
1539618588.161,32.227,36.133,36.133,34.180,3.418,0
1539618588.165,30.273,43.457,41.016,32.715,19.531,0
1539618588.169,35.156,37.109,46.387,42.480,6.836,0
1539618588.173,42.480,35.156,48.828,45.898,11.719,0
1539618588.176,38.086,39.062,45.410,37.109,67.383,0
1539618588.180,32.715,39.062,39.551,33.691,65.918,0
1539618588.184,34.668,39.062,42.480,38.086,38.086,0
1539618588.188,36.621,46.875,46.387,43.945,62.988,0
1539618588.192,45.898,48.828,42.969,41.992,39.551,0
1539618588.196,40.039,40.039,38.086,33.691,39.062,0
1539618588.200,29.297,39.062,33.691,27.832,84.961,0
1539618588.204,33.203,41.016,32.715,29.297,12.695,0
1539618588.208,36.133,36.621,31.250,33.691,-53.223,0
1539618588.212,32.715,28.320,34.668,27.832,31.250,0
1539618588.216,29.297,37.598,41.504,24.414,54.688,0
1539618588.219,26.855,41.016,43.457,20.020,58.105,0
1539618588.223,14.648,34.180,32.227,14.648,47.363,0
1539618588.227,15.137,36.621,25.391,18.066,54.688,0
1539618588.231,20.020,32.715,32.715,22.461,36.621,0
1539618588.235,26.855,29.297,39.551,26.367,33.203,0
1539618588.239,32.715,34.668,42.969,29.297,27.344,0
1539618588.243,36.133,33.691,42.480,25.879,-71.777,0
1539618588.247,29.785,33.691,30.762,23.438,1.953,0
1539618588.251,24.414,32.227,26.855,28.809,76.172,0
1539618588.255,31.738,32.227,40.527,36.133,39.062,0
1539618588.258,30.762,38.086,39.062,29.297,56.152,0
1539618588.262,36.133,41.016,37.598,27.832,28.320,0
1539618588.266,36.621,40.039,41.504,29.297,28.320,0
1539618588.270,32.227,40.527,37.598,25.879,71.289,0
1539618588.274,36.133,39.551,36.133,28.320,101.074,0
1539618588.278,34.180,39.551,31.738,32.715,37.598,0
1539618588.282,31.738,47.852,27.344,32.227,-17.090,0
1539618588.286,23.438,49.316,36.621,21.973,26.855,0
1539618588.290,14.160,45.410,40.527,15.625,34.180,0
1539618588.294,14.648,48.828,39.062,13.184,88.867,0
1539618588.298,11.719,48.340,41.992,8.301,59.082,0
1539618588.301,5.371,46.387,35.156,6.836,10.742,0
1539618588.305,12.207,42.969,29.297,2.930,32.715,0
1539618588.309,10.254,39.551,32.715,-4.883,65.430,0
1539618588.313,4.883,45.898,38.086,0.000,77.637,0
1539618588.317,22.461,54.688,40.527,10.742,33.203,0
1539618588.321,24.902,51.270,40.039,15.625,-17.578,0
1539618588.325,18.066,44.922,37.109,13.672,-43.457,0
1539618588.329,22.949,49.316,30.273,15.137,-25.879,0
1539618588.333,29.785,49.316,34.668,22.949,46.875,0
1539618588.337,27.344,36.621,40.039,21.484,7.324,0
1539618588.341,24.902,33.203,36.621,19.531,28.320,0
1539618588.344,22.461,34.668,37.598,20.508,112.305,0
1539618588.348,24.902,38.086,43.457,27.832,31.250,0
1539618588.352,31.738,38.086,46.387,31.738,12.695,0
1539618588.356,28.320,34.180,41.016,25.879,96.191,0
1539618588.360,27.344,45.410,38.086,31.250,45.410,0
1539618588.364,34.180,40.527,43.457,38.574,33.203,0
1539618588.368,30.762,32.715,39.062,35.645,80.078,0
1539618588.372,27.832,39.551,37.109,30.273,89.355,0
1539618588.376,31.250,45.410,42.480,32.715,78.613,0
1539618588.380,34.180,44.922,41.992,32.715,12.207,0
1539618588.383,33.203,42.480,37.598,27.344,14.160,0
1539618588.387,33.691,47.852,36.133,29.297,93.750,0
1539618588.391,39.551,47.363,34.668,30.273,97.168,0
1539618588.395,36.621,52.734,41.016,26.367,24.414,0
1539618588.399,36.621,53.711,44.922,20.996,12.207,0
1539618588.403,30.273,47.852,41.016,15.625,11.230,0
1539618588.407,20.020,46.875,41.992,15.625,20.996,0
1539618588.411,21.484,42.480,39.062,13.672,94.238,0
1539618588.415,19.043,40.527,39.062,20.020,33.691,0
1539618588.419,19.531,38.574,39.062,20.996,12.695,0
1539618588.423,31.250,42.480,41.504,17.090,-4.395,0
1539618588.426,27.344,42.480,40.527,21.484,-21.484,0
1539618588.430,28.809,34.668,38.574,27.832,46.875,0
1539618588.434,41.504,35.645,37.598,35.156,61.035,0
1539618588.438,46.387,39.062,40.039,41.016,105.469,0
1539618588.442,44.434,29.785,45.898,42.969,119.141,0
1539618588.446,44.922,28.320,42.480,37.598,96.191,0
1539618588.450,48.340,34.668,40.039,37.109,35.645,0
1539618588.454,44.922,38.574,41.992,41.504,39.551,0
1539618588.458,39.551,38.574,37.598,39.062,40.039,0
1539618588.462,39.551,29.785,41.504,36.133,0.977,0
1539618588.466,35.156,33.203,47.363,37.598,-6.348,0
1539618588.469,35.645,42.480,45.410,42.969,-7.812,0
1539618588.473,28.320,40.039,43.945,37.598,6.836,0
1539618588.477,19.531,29.297,35.645,33.203,-14.648,0
1539618588.481,28.320,26.855,31.250,36.133,-21.973,0
1539618588.485,32.227,36.133,38.086,34.180,4.883,0
1539618588.489,28.320,34.668,37.598,24.902,-2.441,0
1539618588.493,29.297,32.715,26.855,20.020,7.812,0
1539618588.497,32.715,41.992,29.297,22.461,12.207,0
1539618588.501,36.621,40.039,35.156,24.414,1.953,0
1539618588.505,44.434,35.645,38.086,32.715,39.551,0
1539618588.508,44.434,40.039,38.574,30.273,8.789,0
1539618588.512,38.574,35.156,27.832,17.090,-17.578,0
1539618588.516,33.203,34.180,21.484,15.625,-2.441,0
1539618588.520,23.926,41.992,25.879,13.672,26.367,0
1539618588.524,25.391,45.898,33.203,16.113,32.715,0
1539618588.528,25.879,42.969,33.203,16.113,-68.359,0
1539618588.532,23.926,36.621,30.762,15.137,-46.387,0
1539618588.536,31.250,32.715,35.156,24.414,2.441,0
1539618588.540,43.945,39.551,36.621,36.621,-12.695,0
1539618588.544,38.086,41.504,39.062,37.598,-12.207,0
1539618588.548,35.156,37.598,39.551,36.621,26.367,0
1539618588.551,39.551,41.016,27.832,38.574,49.316,0
1539618588.555,46.875,37.598,30.762,38.086,36.133,0
1539618588.559,42.969,28.320,41.016,35.156,48.340,0
1539618588.563,38.574,34.180,41.992,34.180,36.621,0
1539618588.567,37.109,43.457,40.527,34.668,22.949,0
1539618588.571,33.691,41.992,40.039,32.227,55.176,0
1539618588.575,39.551,39.062,39.551,39.062,41.016,0
1539618588.579,37.598,41.992,39.062,43.457,21.484,0
1539618588.583,37.109,36.133,39.062,34.668,12.695,0
1539618588.587,42.480,29.297,38.086,26.855,-58.594,0
1539618588.591,40.039,33.691,37.598,28.320,-22.949,0
1539618588.594,40.527,38.086,41.504,29.785,54.688,0
1539618588.598,44.434,38.574,39.551,27.344,75.195,0
1539618588.602,47.363,34.668,37.109,25.879,47.852,0
1539618588.606,51.270,34.668,37.598,24.414,31.738,0
1539618588.610,53.711,41.016,35.645,30.273,47.363,0
1539618588.614,50.781,43.457,34.668,32.227,23.926,0
1539618588.618,32.715,39.062,31.738,27.832,17.578,0
1539618588.622,26.367,38.086,32.715,28.809,53.223,0
1539618588.626,32.715,39.062,37.598,32.715,81.543,0
1539618588.630,33.203,39.062,34.180,34.668,111.328,0
1539618588.633,32.715,36.133,31.250,36.621,77.637,0
1539618588.637,35.645,39.062,44.922,41.992,31.250,0
1539618588.641,40.039,41.504,48.828,38.574,26.855,0
1539618588.645,33.203,40.039,37.109,31.738,59.082,0
1539618588.649,33.691,35.645,25.391,31.738,53.711,0
1539618588.653,40.039,36.621,24.902,33.203,3.906,0
1539618588.657,29.297,33.691,27.832,28.320,-11.230,0
1539618588.661,20.508,41.504,28.320,19.043,37.598,0
1539618588.665,22.949,50.293,30.762,19.531,30.762,0
1539618588.669,26.367,39.062,29.785,22.461,35.645,0
1539618588.673,27.832,41.504,36.133,18.555,42.480,0
1539618588.676,26.855,41.504,26.855,19.531,31.738,0
1539618588.680,32.715,29.297,21.973,26.367,43.457,0
1539618588.684,37.109,31.738,34.668,22.461,2.441,0
1539618588.688,33.691,40.039,34.668,18.555,33.203,0
1539618588.692,31.738,38.574,33.203,21.973,60.547,0
1539618588.696,37.598,33.691,36.133,26.367,47.363,0
1539618588.700,38.574,35.156,37.598,29.785,63.965,0
1539618588.704,41.992,42.969,42.969,35.156,59.570,0
1539618588.708,41.016,36.133,41.992,30.762,77.637,0
1539618588.712,30.762,29.785,35.156,25.391,87.402,0
1539618588.716,33.203,34.180,33.691,28.809,58.105,0
1539618588.719,34.668,33.691,35.156,32.227,47.363,0
1539618588.723,32.715,36.621,37.598,36.621,-10.742,0
1539618588.727,35.645,36.133,39.062,36.621,-0.977,0
1539618588.731,35.645,33.203,35.645,33.203,22.949,0
1539618588.735,33.203,38.574,34.668,34.180,-8.301,0
1539618588.739,35.645,36.133,35.156,41.016,53.223,0
1539618588.743,31.738,38.086,32.227,36.133,47.363,0
1539618588.747,23.438,44.434,33.691,24.414,17.578,0
1539618588.751,27.344,47.363,33.691,22.461,35.156,0
1539618588.755,21.973,47.852,30.762,18.555,39.551,0
1539618588.758,9.766,46.387,30.273,10.254,37.109,0
1539618588.762,9.766,43.457,29.297,4.883,-4.395,0
1539618588.766,6.836,45.410,30.762,-0.977,-11.230,0
1539618588.770,7.324,45.410,31.738,-2.441,-35.645,0
1539618588.774,8.301,42.969,33.691,-0.488,-29.785,0
1539618588.778,8.301,46.387,33.203,-0.488,-8.789,0
1539618588.782,11.719,48.340,34.180,7.324,80.078,0
1539618588.786,19.043,46.387,37.598,16.113,129.883,0
1539618588.790,24.902,45.410,37.109,17.090,45.898,0
1539618588.794,21.973,41.504,38.574,17.578,22.461,0
1539618588.798,21.973,34.668,36.133,18.066,17.090,0
1539618588.801,27.344,37.109,38.086,22.949,10.742,0
1539618588.805,26.855,44.922,42.480,25.879,25.391,0
1539618588.809,19.531,41.016,33.203,20.508,78.125,0
1539618588.813,22.949,34.180,33.203,23.438,108.398,0
1539618588.817,25.879,32.227,38.574,23.438,67.871,0
1539618588.821,22.461,28.809,33.691,18.555,52.246,0
1539618588.825,24.902,31.738,35.645,16.113,61.523,0
1539618588.829,27.832,38.574,38.574,20.996,27.344,0
1539618588.833,21.484,32.715,34.668,30.762,-1.953,0
1539618588.837,21.484,33.203,32.715,24.414,-10.742,0
1539618588.841,27.832,41.016,35.645,25.391,-13.672,0
1539618588.844,29.785,31.250,38.086,29.297,26.367,0
1539618588.848,31.250,28.320,35.156,26.855,18.555,0
1539618588.852,33.691,36.133,33.203,24.414,3.906,0
1539618588.856,38.574,32.227,36.621,25.391,44.922,0
1539618588.860,24.902,28.809,38.086,21.973,41.504,0
1539618588.864,24.414,29.297,37.109,21.973,13.672,0
1539618588.868,38.086,30.762,29.785,20.508,9.277,0
1539618588.872,39.551,43.457,33.691,28.809,30.273,0
1539618588.876,30.273,46.875,37.109,28.809,35.156,0
1539618588.880,14.160,30.762,25.879,16.113,-10.254,0
1539618588.883,21.484,33.203,27.344,13.184,-8.301,0
1539618588.887,31.738,38.574,36.621,21.484,2.441,0
1539618588.891,24.902,38.086,39.062,26.367,40.039,0
1539618588.895,18.555,34.668,31.250,24.902,53.711,0
1539618588.899,18.066,36.133,29.785,26.855,5.371,0
1539618588.903,25.879,36.621,34.668,23.926,39.062,0
1539618588.907,26.367,31.250,29.297,24.414,53.711,0
1539618588.911,25.879,28.320,30.273,23.438,57.617,0
1539618588.915,27.344,29.785,36.133,22.949,62.012,0
1539618588.919,23.926,31.738,33.691,24.902,31.250,0
1539618588.923,29.297,27.344,38.574,28.809,31.738,0
1539618588.926,38.574,31.738,39.551,34.668,20.020,0
1539618588.930,40.039,38.574,34.180,39.062,2.930,0
1539618588.934,36.621,39.551,39.551,41.504,34.668,0
1539618588.938,34.180,45.898,41.016,42.969,62.500,0
1539618588.942,28.809,30.762,27.344,32.715,27.344,0
1539618588.946,22.461,15.137,17.578,19.531,-1.953,0
1539618588.950,25.879,28.809,30.273,22.949,34.668,0
1539618588.954,28.320,36.621,42.480,25.879,62.988,0
1539618588.958,25.879,36.621,41.504,21.484,33.691,0
1539618588.962,22.461,40.039,37.598,22.949,52.734,0
1539618588.966,32.227,40.527,33.691,28.320,64.941,0
1539618588.969,44.434,38.086,34.668,31.250,43.457,0
1539618588.973,37.598,40.527,35.645,28.320,54.688,0
1539618588.977,33.691,41.504,39.062,28.320,21.484,0
1539618588.981,37.598,42.969,41.992,35.645,-16.602,0
1539618588.985,34.668,36.133,40.039,40.527,40.527,0
1539618588.989,26.855,34.180,35.156,35.645,56.152,0
1539618588.993,27.344,43.457,31.250,31.738,16.602,0
1539618588.997,28.320,43.945,32.715,28.809,24.902,0
1539618589.001,33.691,41.504,33.691,27.344,74.707,0
1539618589.005,42.969,36.621,38.574,35.645,15.137,0
1539618589.008,41.992,31.250,41.992,41.504,-14.648,0
1539618589.012,42.969,34.180,42.480,37.109,11.230,0
1539618589.016,42.969,42.969,41.504,33.203,21.484,0
1539618589.020,35.645,40.039,34.180,35.156,14.648,0
1539618589.024,32.227,38.086,33.691,33.203,0.977,0
1539618589.028,34.180,39.551,35.156,26.855,45.898,0
1539618589.032,40.039,40.527,35.156,32.715,86.914,0
1539618589.036,37.109,39.062,33.203,36.133,-1.953,0
1539618589.040,26.367,35.645,33.203,33.203,-41.992,0
1539618589.044,30.273,33.203,32.715,33.691,-29.785,0
1539618589.048,36.621,31.738,27.344,35.156,-21.484,0
1539618589.051,33.691,38.086,27.832,34.668,17.090,0
1539618589.055,32.715,41.504,36.133,35.156,-38.086,0
1539618589.059,24.902,37.598,36.621,23.438,-8.789,0
1539618589.063,20.020,38.574,34.668,22.949,58.594,0
1539618589.067,20.508,36.133,38.086,25.391,103.027,0
1539618589.071,20.020,28.809,38.086,23.438,76.172,0
1539618589.075,23.438,28.320,33.691,28.809,85.938,0
1539618589.079,25.879,31.738,34.668,26.367,69.824,0
1539618589.083,25.879,36.133,30.762,30.273,34.668,0
1539618589.087,30.273,41.504,30.273,35.156,75.195,0
1539618589.091,36.621,36.621,41.016,34.180,76.172,0
1539618589.094,29.297,24.902,39.062,30.762,60.059,0
1539618589.098,27.832,25.879,36.133,35.645,48.828,0
1539618589.102,33.203,29.297,40.527,38.574,31.250,0
1539618589.106,32.715,30.762,44.434,35.645,46.387,0
1539618589.110,38.086,28.320,44.434,37.109,26.367,0
1539618589.114,37.598,29.297,40.039,37.109,3.418,0
1539618589.118,37.598,39.062,37.109,36.621,0.488,0
1539618589.122,39.551,38.574,39.062,40.039,1.953,0
1539618589.126,37.109,36.133,40.039,40.527,0.000,0
1539618589.130,44.922,42.480,42.480,44.434,-33.691,0
1539618589.133,46.387,41.016,46.875,46.875,60.059,0
1539618589.137,35.156,31.250,41.504,42.969,43.457,0
1539618589.141,39.062,31.250,37.109,39.551,-17.090,0
1539618589.145,44.434,35.156,37.109,40.039,-3.906,0
1539618589.149,39.062,33.691,38.574,41.016,-27.344,0
1539618589.153,32.715,36.621,38.574,38.574,-18.066,0
1539618589.157,35.156,34.668,40.527,41.992,30.273,0
1539618589.161,40.527,36.621,41.504,44.434,56.152,0
1539618589.165,44.922,38.086,33.691,44.922,-6.836,0
1539618589.169,36.133,31.738,31.738,38.574,-1.465,0
1539618589.173,32.227,39.062,33.691,41.504,37.109,0
1539618589.176,40.039,41.016,30.273,39.551,-7.812,0
1539618589.180,38.086,39.551,36.621,29.785,28.809,0
1539618589.184,43.945,41.992,43.945,31.738,68.359,0
1539618589.188,46.387,40.039,46.875,43.457,34.668,0
1539618589.192,33.691,37.109,46.875,40.039,83.008,0
1539618589.196,27.344,32.715,42.480,24.902,74.707,0
1539618589.200,25.879,31.250,38.574,30.273,13.672,0
1539618589.204,29.297,27.344,39.551,30.273,-5.859,0
1539618589.208,36.621,27.832,41.016,30.762,10.254,0
1539618589.212,36.133,31.738,39.551,35.645,29.785,0
1539618589.216,27.832,37.109,39.551,31.250,24.414,0
1539618589.219,25.879,39.062,40.039,30.273,22.949,0
1539618589.223,35.645,33.203,41.016,32.715,36.621,0
1539618589.227,38.086,35.645,41.992,32.715,87.891,0
1539618589.231,34.668,40.527,44.434,38.574,13.184,0
1539618589.235,41.992,34.668,44.434,43.457,6.348,0
1539618589.239,35.645,30.762,39.551,34.180,52.246,0
1539618589.243,23.926,35.156,38.086,24.902,-26.855,0
1539618589.247,29.785,37.598,37.598,29.785,-20.508,0
1539618589.251,31.738,23.926,37.109,32.715,41.016,0
1539618589.255,32.715,14.648,41.504,32.715,19.043,0
1539618589.258,40.039,36.133,33.691,39.062,-0.488,0
1539618589.262,35.645,46.387,25.879,33.691,-16.113,0
1539618589.266,32.227,39.551,27.344,22.949,25.879,0
1539618589.270,36.133,35.156,29.785,19.043,34.668,0
1539618589.274,28.809,33.203,25.879,16.113,62.012,0
1539618589.278,28.809,35.645,18.555,22.461,95.703,0
1539618589.282,39.551,35.156,26.367,26.367,57.129,0
1539618589.286,33.203,35.645,32.715,22.461,43.945,0
1539618589.290,22.461,37.109,37.109,20.996,28.809,0
1539618589.294,25.879,33.691,38.086,18.066,35.645,0
1539618589.298,29.297,38.086,31.738,19.531,50.781,0
1539618589.301,32.715,42.969,36.621,25.879,2.441,0
1539618589.305,30.762,42.969,39.551,25.391,6.836,0
1539618589.309,33.691,43.457,37.598,22.949,69.824,0
1539618589.313,34.180,41.016,37.109,31.250,78.125,0
1539618589.317,35.645,40.039,35.645,28.320,54.199,0
1539618589.321,36.133,43.945,34.180,25.391,41.504,0
1539618589.325,39.551,41.992,42.480,38.574,8.301,0
1539618589.329,37.598,35.156,43.457,38.086,33.203,0
1539618589.333,24.902,32.227,30.762,28.320,60.059,0
1539618589.337,24.902,38.574,28.320,25.391,31.250,0
1539618589.341,41.016,42.969,34.180,38.574,9.766,0
1539618589.344,49.316,37.598,30.762,45.898,6.836,0
1539618589.348,49.805,32.227,30.273,39.551,35.645,0
1539618589.352,45.898,33.203,36.621,36.621,8.301,0
1539618589.356,37.598,41.016,35.645,28.320,-29.785,0
1539618589.360,40.527,43.945,37.109,27.344,37.109,0
1539618589.364,39.551,43.945,34.180,31.738,84.473,0
1539618589.368,42.969,42.480,32.715,37.598,23.438,0
1539618589.372,50.781,38.574,37.109,46.875,-3.418,0
1539618589.376,44.434,34.180,33.203,41.992,16.602,0
1539618589.380,44.434,35.156,27.832,37.598,-19.043,0
1539618589.383,44.434,40.039,29.297,41.016,-18.066,0
1539618589.387,44.922,35.156,32.715,41.016,17.090,0
1539618589.391,52.734,29.785,32.227,41.504,36.133,0
1539618589.395,54.688,35.645,32.715,41.016,52.734,0
1539618589.399,57.129,39.551,39.062,44.434,49.316,0
1539618589.403,52.734,36.133,35.645,51.758,27.832,0
1539618589.407,47.363,32.227,29.785,48.340,-6.836,0
1539618589.411,44.434,30.273,28.809,42.969,-36.133,0
1539618589.415,44.922,28.320,29.297,39.062,59.570,0
1539618589.419,49.805,29.297,33.691,42.969,83.008,0
1539618589.423,58.105,31.250,39.551,48.340,0.000,0
1539618589.426,57.617,32.715,39.551,46.875,33.691,0
1539618589.430,39.551,35.156,31.250,41.504,61.035,2
1539618589.434,39.062,30.762,31.738,37.109,56.152,0
1539618589.438,41.016,28.809,34.180,34.180,31.250,0
1539618589.442,31.250,33.691,33.691,38.086,-4.395,0
1539618589.446,34.180,34.668,37.109,40.039,-4.395,0
1539618589.450,35.156,35.645,37.109,38.574,5.371,0
1539618589.454,35.156,33.203,38.086,40.527,7.324,0
1539618589.458,40.039,33.203,39.551,38.574,-49.316,0
1539618589.462,43.457,33.691,41.504,39.062,-10.254,0
1539618589.466,43.945,32.227,40.527,38.574,17.090,0
1539618589.469,40.527,34.180,39.062,38.574,36.621,0
1539618589.473,37.109,37.109,39.551,38.574,47.363,0
1539618589.477,42.969,40.039,41.504,39.062,40.039,0
1539618589.481,49.805,41.016,45.898,40.527,1.953,0
1539618589.485,41.504,44.922,41.992,41.504,21.973,0
1539618589.489,39.551,39.551,41.992,43.945,70.801,0
1539618589.493,42.480,26.855,43.457,41.016,58.105,0
1539618589.497,40.527,35.645,43.457,44.434,47.363,0
1539618589.501,50.293,46.875,47.363,48.828,-9.766,0
1539618589.505,44.434,43.945,39.551,38.086,7.812,0
1539618589.508,32.715,34.180,33.691,36.133,39.551,0
1539618589.512,29.785,32.227,36.621,35.156,70.801,0
1539618589.516,29.297,34.668,35.156,33.691,73.730,0
1539618589.520,31.250,33.203,35.156,38.086,58.594,0
1539618589.524,35.156,30.762,40.039,34.668,53.711,0
1539618589.528,32.227,28.320,40.039,35.156,64.453,0
1539618589.532,40.527,37.598,44.922,41.016,79.590,0
1539618589.536,40.527,41.016,38.574,41.504,0.488,0
1539618589.540,33.203,36.133,25.391,36.621,-31.250,0
1539618589.544,28.320,41.992,33.203,34.180,-6.836,0
1539618589.548,25.879,32.715,42.480,31.738,4.395,0
1539618589.551,38.086,24.902,47.363,35.156,37.109,0
1539618589.555,38.086,35.156,42.480,36.133,63.965,0
1539618589.559,40.039,43.457,40.527,32.715,66.895,0
1539618589.563,40.527,41.992,40.039,32.715,47.363,0
1539618589.567,26.367,36.621,35.645,29.785,49.316,0
1539618589.571,32.227,43.457,35.156,23.926,74.219,0
1539618589.575,36.133,50.293,37.598,26.367,94.727,0
1539618589.579,30.762,41.992,36.133,32.227,78.125,0
1539618589.583,38.574,37.598,34.668,35.156,44.434,0
1539618589.587,46.387,42.969,37.109,39.551,17.578,0
1539618589.591,46.387,49.316,38.574,41.992,42.480,0
1539618589.594,45.410,45.410,41.992,39.062,50.781,0
1539618589.598,36.621,35.156,36.621,31.738,19.531,0
1539618589.602,30.762,36.621,29.785,27.832,7.812,0
1539618589.606,38.086,42.480,34.668,30.762,43.457,0
1539618589.610,38.086,32.715,40.039,33.691,20.020,0
1539618589.614,33.203,27.832,40.527,36.621,-29.785,0
1539618589.618,33.203,41.992,40.039,33.691,11.719,0
1539618589.622,30.762,47.852,32.715,27.832,75.684,0
1539618589.626,27.832,40.039,26.367,20.508,65.918,0
1539618589.630,30.762,36.621,32.227,19.043,-8.789,0
1539618589.633,34.668,35.156,36.133,20.996,-14.648,0
1539618589.637,38.574,42.480,33.691,25.391,1.953,0
1539618589.641,35.156,46.875,28.809,15.625,-9.277,0
1539618589.645,26.855,38.574,30.273,4.395,27.344,0
1539618589.649,36.621,38.574,30.762,17.578,43.945,0
1539618589.653,36.621,34.180,28.320,25.391,28.320,0
1539618589.657,35.645,24.902,39.062,31.738,63.477,0
1539618589.661,36.621,36.133,41.016,37.109,34.668,0
1539618589.665,21.484,42.480,36.621,30.273,13.184,0
1539618589.669,26.367,34.668,39.551,29.785,67.871,0
1539618589.673,39.062,32.715,48.340,37.598,63.477,0
1539618589.676,38.574,34.668,45.898,42.969,18.066,0
1539618589.680,40.039,42.480,30.762,41.504,-12.695,0
1539618589.684,42.480,44.434,25.879,34.180,31.738,0
1539618589.688,43.457,36.133,34.180,38.574,69.824,0
1539618589.692,40.527,30.762,41.016,38.574,-0.488,0
1539618589.696,35.156,31.738,39.551,26.855,30.762,0
1539618589.700,40.039,35.156,38.086,30.273,54.688,0
1539618589.704,38.574,35.645,40.039,31.738,-15.625,0
1539618589.708,29.297,37.109,41.992,31.250,17.578,0
1539618589.712,27.832,37.598,40.527,32.227,46.875,0
1539618589.716,31.738,41.016,36.621,31.738,32.715,0
1539618589.719,39.551,32.715,37.109,34.668,20.020,0
1539618589.723,38.086,32.715,40.527,36.621,34.668,0
1539618589.727,30.273,40.527,38.574,31.738,29.297,0
1539618589.731,33.691,39.551,35.645,30.273,-14.648,0
1539618589.735,39.551,40.039,38.574,37.109,11.230,0
1539618589.739,44.434,39.551,36.621,38.574,4.395,0
1539618589.743,41.504,36.133,34.668,37.598,8.301,0
1539618589.747,41.504,38.086,38.574,43.945,12.207,0
1539618589.751,50.293,45.410,42.480,48.828,-16.113,0
1539618589.755,47.852,41.992,45.898,49.316,18.066,0
1539618589.758,30.762,31.250,37.109,33.691,57.617,0
1539618589.762,26.367,27.832,34.180,23.438,69.824,0
1539618589.766,26.855,35.156,40.039,25.879,106.445,0
1539618589.770,19.043,43.945,35.156,27.832,107.422,0
1539618589.774,22.949,41.504,37.109,30.273,43.457,0
1539618589.778,25.391,43.457,40.527,28.809,20.996,0
1539618589.782,23.926,42.480,35.645,24.902,28.809,0
1539618589.786,24.902,43.945,38.574,24.414,34.180,0
1539618589.790,31.250,52.246,45.898,31.738,26.367,0
1539618589.794,31.738,46.387,43.945,36.621,78.125,0
1539618589.798,20.996,28.809,41.016,30.273,39.062,0
1539618589.801,19.043,32.715,38.086,33.203,30.273,0
1539618589.805,22.461,37.109,40.527,41.504,53.223,0
1539618589.809,27.344,33.203,41.016,36.621,13.672,0
1539618589.813,28.809,41.504,39.062,35.645,1.465,0
1539618589.817,27.832,46.387,41.992,39.062,-27.832,0
1539618589.821,31.250,41.016,40.527,37.109,7.812,0
1539618589.825,42.969,38.086,39.551,37.598,7.812,0
1539618589.829,30.273,38.574,40.039,35.156,1.953,0
1539618589.833,27.832,38.574,43.945,34.180,57.129,0
1539618589.837,36.133,31.250,44.922,33.691,32.715,0
1539618589.841,31.738,35.156,40.527,29.785,1.953,0
1539618589.844,27.344,41.504,41.992,27.344,17.090,0
1539618589.848,25.391,39.551,40.527,23.438,-31.250,0
1539618589.852,26.855,38.574,40.527,21.484,18.066,0
1539618589.856,34.180,41.992,41.504,22.461,33.691,0
1539618589.860,37.109,39.551,37.598,25.391,21.973,0
1539618589.864,31.250,36.621,37.598,27.344,55.664,0
1539618589.868,30.273,41.992,41.504,30.273,41.504,0
1539618589.872,29.785,44.922,42.969,33.203,56.641,0
1539618589.876,32.227,43.945,41.992,31.250,70.312,0
1539618589.880,37.598,40.039,42.969,32.227,37.598,0
1539618589.883,36.133,37.109,44.434,36.133,49.805,0
1539618589.887,34.668,41.016,44.434,37.109,20.020,0
1539618589.891,38.086,46.875,45.410,38.086,13.672,0
1539618589.895,34.180,41.992,42.480,30.273,119.141,0
1539618589.899,39.551,41.016,48.828,37.109,132.812,0
1539618589.903,31.250,39.551,47.852,36.133,70.312,0
1539618589.907,19.531,25.879,39.062,22.949,28.809,0
1539618589.911,30.273,25.879,36.133,26.367,9.277,0
1539618589.915,25.391,31.250,34.668,23.926,25.391,0
1539618589.919,13.184,33.691,39.062,15.625,55.176,0
1539618589.923,14.160,28.320,40.039,13.672,20.508,0
1539618589.926,21.973,30.762,38.086,18.555,-35.156,0
1539618589.930,24.902,43.945,38.574,21.973,-20.020,0
1539618589.934,28.320,41.504,39.062,22.949,6.836,0
1539618589.938,28.320,38.086,40.039,24.414,25.391,0
1539618589.942,29.785,38.086,42.480,28.320,71.777,0
1539618589.946,31.738,37.109,38.574,26.855,16.113,0
1539618589.950,26.855,37.598,31.250,20.020,-8.301,0
1539618589.954,19.531,36.133,29.297,17.090,59.082,0
1539618589.958,19.043,33.203,32.227,23.438,65.918,0
1539618589.962,21.484,29.785,36.133,25.879,3.906,0
1539618589.966,20.996,35.156,33.203,22.461,-21.973,0
1539618589.969,20.508,36.133,32.715,20.996,20.508,0
1539618589.973,24.902,33.203,37.598,23.438,47.363,0
1539618589.977,25.391,36.621,38.086,25.879,42.969,0
1539618589.981,21.484,36.621,35.645,27.344,35.156,0
1539618589.985,26.855,33.691,33.691,32.715,-11.230,0
1539618589.989,29.785,31.738,33.691,32.715,-21.484,0
1539618589.993,28.809,32.227,36.621,27.832,43.945,0
1539618589.997,28.809,41.016,42.969,33.203,61.523,0
1539618590.001,26.855,33.691,44.922,34.668,69.336,0
1539618590.005,23.438,27.832,37.598,26.855,54.688,0
1539618590.008,25.391,35.156,37.109,35.645,8.301,0
1539618590.012,37.109,39.062,40.527,42.480,60.059,0
1539618590.016,32.715,40.527,41.504,35.645,30.273,0
1539618590.020,24.902,38.086,42.969,34.668,-8.301,0
1539618590.024,31.738,42.969,38.574,36.133,21.484,0
1539618590.028,32.227,42.969,33.691,33.203,17.578,0
1539618590.032,29.785,39.551,36.621,24.902,13.672,0
1539618590.036,24.414,42.480,36.621,19.043,70.801,0
1539618590.040,20.508,46.875,35.156,17.090,94.238,0
1539618590.044,19.043,48.340,35.156,15.625,55.176,0
1539618590.048,23.926,45.898,38.086,17.090,95.215,0
1539618590.051,27.832,45.898,41.504,20.020,104.004,0
1539618590.055,26.367,43.945,41.016,21.973,32.715,0
1539618590.059,28.320,39.551,41.016,24.414,13.184,0
1539618590.063,26.855,38.086,39.551,26.367,3.418,0
1539618590.067,26.855,41.992,36.621,21.484,36.621,0
1539618590.071,27.344,44.434,36.133,20.508,36.133,0
1539618590.075,25.879,42.969,36.621,22.461,-2.930,0
1539618590.079,31.738,41.504,37.109,26.855,-26.367,0
1539618590.083,29.297,42.969,37.109,32.715,26.367,0
1539618590.087,30.273,43.945,33.691,27.344,22.949,0
1539618590.091,36.621,40.527,33.203,30.762,-2.441,0
1539618590.094,32.227,34.180,37.109,32.715,28.320,0
1539618590.098,23.438,39.551,34.180,27.344,25.391,0
1539618590.102,29.297,46.387,34.180,32.227,59.570,0
1539618590.106,41.504,43.945,40.039,35.645,26.855,0
1539618590.110,35.156,39.551,39.062,27.832,28.320,0
1539618590.114,35.645,41.016,37.109,30.762,58.594,0
1539618590.118,42.969,41.504,33.203,33.691,17.578,0
1539618590.122,36.621,41.504,33.203,28.809,25.391,0
1539618590.126,32.227,32.227,35.156,28.809,20.020,0
1539618590.130,33.203,26.855,31.250,23.926,22.461,0
1539618590.133,36.621,38.574,28.320,22.461,24.902,0
1539618590.137,38.574,42.480,30.762,24.414,-2.441,0
1539618590.141,32.715,40.039,31.738,21.973,30.273,0
1539618590.145,33.203,37.598,29.785,28.320,82.031,0
1539618590.149,35.156,41.016,29.297,29.297,29.785,0
1539618590.153,39.062,46.875,35.645,34.668,1.953,0
1539618590.157,37.598,42.969,29.785,34.668,15.137,0
1539618590.161,29.297,33.691,25.879,24.414,0.000,0
1539618590.165,33.203,36.133,38.086,25.391,71.289,0
1539618590.169,37.598,38.086,47.363,33.203,70.312,0
1539618590.173,41.016,32.227,49.316,40.527,37.109,0
1539618590.176,32.227,30.762,36.133,29.785,54.199,0
1539618590.180,35.645,34.668,34.668,28.809,11.230,0
1539618590.184,41.016,35.156,40.039,32.715,9.277,0
1539618590.188,32.715,37.109,29.297,26.367,19.531,0
1539618590.192,33.691,39.551,25.391,32.227,23.926,0
1539618590.196,35.645,40.527,27.344,37.109,13.672,0
1539618590.200,38.574,37.109,29.785,29.297,-17.578,0
1539618590.204,38.086,39.062,34.180,21.484,-12.207,0
1539618590.208,33.691,41.016,35.156,22.949,16.602,0
1539618590.212,38.574,41.016,32.227,24.902,77.637,0
1539618590.216,46.875,45.410,29.785,28.809,83.496,0
1539618590.219,40.039,41.016,32.227,25.391,-13.184,0
1539618590.223,31.738,39.551,29.785,20.996,-18.066,0
1539618590.227,42.969,37.109,35.645,28.809,52.734,0
1539618590.231,39.062,35.156,43.945,29.785,6.348,0
1539618590.235,24.414,37.109,38.086,21.484,-7.324,0
1539618590.239,22.949,36.133,36.621,18.555,4.883,0
1539618590.243,19.043,36.621,41.992,21.484,33.691,0
1539618590.247,23.438,39.551,41.504,24.902,35.645,0
1539618590.251,27.832,41.016,39.551,23.926,-2.441,0
1539618590.255,25.391,35.645,41.016,22.949,54.688,0
1539618590.258,22.461,37.598,43.945,27.344,72.266,0
1539618590.262,36.133,41.504,50.781,34.180,45.898,0
1539618590.266,35.645,36.133,47.363,32.715,20.020,0
1539618590.270,30.762,38.574,42.969,38.574,46.387,0
1539618590.274,38.574,33.203,49.316,36.621,63.477,0
1539618590.278,28.809,24.902,45.898,24.414,25.391,0
1539618590.282,27.344,34.180,40.039,24.902,53.711,0
1539618590.286,34.668,36.621,43.945,31.250,41.016,0
1539618590.290,38.086,33.691,44.922,36.621,26.855,0
1539618590.294,39.551,37.109,43.945,40.527,51.270,0
1539618590.298,46.875,38.574,38.086,43.457,20.508,0
1539618590.301,46.387,34.668,26.855,41.504,34.668,0
1539618590.305,41.992,38.574,32.227,35.156,33.691,0
1539618590.309,38.086,42.969,42.969,34.668,-6.348,0
1539618590.313,29.297,41.016,43.457,36.621,65.918,0
1539618590.317,35.156,35.156,44.434,37.598,55.176,0
1539618590.321,33.691,33.203,45.898,34.180,17.090,0
1539618590.325,27.344,41.504,38.574,30.273,43.945,0
1539618590.329,34.668,41.016,38.574,33.691,59.082,0
1539618590.333,33.203,33.203,40.527,35.156,95.703,0
1539618590.337,28.809,33.203,38.086,31.738,49.805,0
1539618590.341,40.527,45.410,40.527,39.062,31.738,0
1539618590.344,46.387,48.340,43.945,41.504,31.738,0
1539618590.348,26.367,34.668,41.504,30.762,42.969,0
1539618590.352,22.949,29.785,35.156,25.391,62.012,0
1539618590.356,30.762,37.598,30.273,25.391,50.781,0
1539618590.360,29.297,37.598,37.109,26.367,77.637,0
1539618590.364,26.367,31.738,42.969,20.996,65.430,0
1539618590.368,27.832,37.598,36.133,21.484,13.184,0
1539618590.372,32.715,38.086,38.574,28.809,-44.434,0
1539618590.376,27.832,33.203,41.504,27.832,1.465,0
1539618590.380,26.367,38.574,41.992,31.738,68.359,0
1539618590.383,29.785,42.480,46.875,34.668,68.359,0
1539618590.387,33.203,41.992,45.898,37.109,55.176,0
1539618590.391,41.016,49.316,45.410,46.875,-11.719,0
