timestamps,TP9,AF7,AF8,TP10,Right AUX,Marker0
1539618252.887,15.137,35.645,33.203,14.648,25.879,1
1539618252.891,20.508,35.645,26.367,21.973,49.316,0
1539618252.895,34.668,30.273,33.691,28.809,72.266,0
1539618252.899,32.715,32.227,42.480,28.809,65.918,0
1539618252.903,27.344,42.969,42.480,29.785,21.484,0
1539618252.907,19.531,41.016,39.551,24.414,-6.348,0
1539618252.911,17.090,27.344,33.203,11.719,51.758,0
1539618252.915,26.367,29.785,29.297,19.531,40.039,0
1539618252.919,33.203,41.504,34.668,30.762,47.363,0
1539618252.923,25.879,36.621,38.086,21.973,96.191,0
1539618252.926,19.043,38.574,32.715,18.066,76.660,0
1539618252.930,23.438,40.039,34.180,25.879,67.871,0
1539618252.934,30.762,31.250,35.645,29.785,68.359,0
1539618252.938,32.227,32.227,32.715,30.762,70.312,0
1539618252.942,36.133,37.598,35.645,31.250,95.703,0
1539618252.946,37.598,39.062,37.109,33.691,83.984,0
1539618252.950,27.344,36.133,25.879,32.227,63.477,0
1539618252.954,23.438,33.691,25.879,26.855,31.250,0
1539618252.958,22.461,41.992,28.809,23.926,-14.648,0
1539618252.962,27.832,42.480,26.367,26.855,-20.020,0
1539618252.966,25.391,31.738,39.062,21.973,-7.812,0
1539618252.969,19.531,37.598,46.387,11.719,47.852,0
1539618252.973,24.414,51.270,41.016,16.113,59.570,0
1539618252.977,30.273,45.898,38.574,26.367,3.906,0
1539618252.981,36.133,35.645,38.574,23.438,8.301,0
1539618252.985,33.203,37.598,41.016,26.367,28.320,0
1539618252.989,20.508,43.945,39.551,27.344,44.434,0
1539618252.993,17.578,40.039,33.691,21.973,34.180,0
1539618252.997,24.414,35.645,34.668,21.484,-44.922,0
1539618253.001,31.250,42.480,31.250,26.367,1.465,0
1539618253.005,29.297,41.016,31.250,28.809,95.703,0
1539618253.008,29.785,40.527,37.109,29.785,77.148,0
1539618253.012,35.156,40.039,35.156,32.227,101.562,0
1539618253.016,36.621,38.086,40.527,37.109,33.203,0
1539618253.020,34.668,48.340,43.457,39.551,-1.465,0
1539618253.024,42.480,46.875,41.016,37.109,56.641,0
1539618253.028,38.574,41.992,42.480,29.297,70.312,0
1539618253.032,32.227,39.551,40.039,29.785,29.785,0
1539618253.036,33.203,36.133,29.785,34.668,12.207,0
1539618253.040,34.668,39.551,25.879,32.715,36.621,0
1539618253.044,41.992,35.156,33.691,32.715,49.316,0
1539618253.048,39.062,37.109,31.250,31.738,29.297,0
1539618253.051,35.156,47.852,31.738,32.227,24.902,0
1539618253.055,38.574,48.828,40.527,31.250,60.059,0
1539618253.059,41.992,43.457,46.875,30.273,26.855,0
1539618253.063,44.922,39.062,45.410,33.691,-13.184,0
1539618253.067,35.645,34.668,41.016,29.785,0.000,0
1539618253.071,36.133,30.762,40.039,32.227,1.465,0
1539618253.075,38.574,34.668,38.574,38.086,-19.043,0
1539618253.079,31.738,50.781,32.227,30.273,28.809,0
1539618253.083,28.320,46.875,29.297,21.973,42.480,0
1539618253.087,27.344,38.086,32.227,19.043,53.711,0
1539618253.091,32.715,42.480,26.855,26.855,56.152,0
1539618253.094,31.738,37.109,31.738,36.133,-13.672,0
1539618253.098,35.645,41.992,49.316,42.480,-28.320,0
1539618253.102,43.457,45.410,51.270,42.969,-2.930,0
1539618253.106,25.879,33.691,38.086,30.273,10.254,0
1539618253.110,28.320,34.180,33.203,27.344,40.039,0
1539618253.114,30.273,48.828,25.879,30.273,37.109,0
1539618253.118,25.391,43.457,17.090,23.926,31.738,0
1539618253.122,30.273,30.273,26.855,23.438,17.090,0
1539618253.126,27.832,42.480,33.203,25.879,35.156,0
1539618253.130,27.344,50.781,35.156,26.367,46.875,0
1539618253.133,33.691,49.805,40.039,32.227,32.715,0
1539618253.137,43.457,49.316,40.039,35.645,-7.812,0
1539618253.141,44.434,46.875,41.504,35.156,14.160,0
1539618253.145,41.504,34.180,38.086,30.762,64.941,0
1539618253.149,32.715,33.691,28.320,27.832,17.578,0
1539618253.153,34.180,44.922,30.273,30.762,61.035,0
1539618253.157,31.738,41.992,38.086,27.344,58.105,0
1539618253.161,28.809,25.391,40.039,28.809,12.207,0
1539618253.165,32.227,24.414,40.039,30.762,36.621,0
1539618253.169,28.809,42.480,33.691,31.250,-2.930,0
1539618253.173,32.715,46.875,32.715,39.062,15.625,0
1539618253.176,32.715,41.016,36.133,38.086,-9.277,0
1539618253.180,31.250,34.668,36.621,25.879,-9.766,0
1539618253.184,27.344,29.785,41.992,30.273,64.453,0
1539618253.188,28.320,35.156,39.551,36.133,38.086,0
1539618253.192,32.715,39.062,28.809,35.156,24.414,0
1539618253.196,38.574,28.809,25.879,38.086,71.289,0
1539618253.200,38.574,28.320,35.645,46.387,17.090,0
1539618253.204,31.250,40.039,46.875,50.781,-18.555,0
1539618253.208,38.574,41.504,42.969,34.668,-18.066,0
1539618253.212,40.039,39.062,40.527,33.691,-11.230,0
1539618253.216,27.832,41.016,41.992,38.574,29.785,0
1539618253.219,26.367,40.039,37.109,29.785,11.719,0
1539618253.223,24.902,42.969,40.527,30.273,-5.371,0
1539618253.227,37.109,47.852,40.039,40.039,-6.836,0
1539618253.231,34.668,34.180,37.598,34.180,23.438,0
1539618253.235,20.996,33.203,29.785,27.344,88.867,0
1539618253.239,21.484,41.504,30.273,30.273,23.926,0
1539618253.243,20.508,40.527,43.945,28.320,20.508,0
1539618253.247,20.996,48.340,42.969,33.691,137.695,0
1539618253.251,22.461,48.340,44.434,31.738,64.941,0
1539618253.255,18.555,38.086,43.457,20.996,11.719,0
1539618253.258,16.113,38.086,39.551,23.926,48.828,0
1539618253.262,16.602,36.621,34.180,18.555,24.902,0
1539618253.266,18.066,30.762,35.645,18.555,27.832,0
1539618253.270,21.973,26.855,40.527,19.531,30.273,0
1539618253.274,29.785,34.668,37.598,21.973,50.293,0
1539618253.278,20.996,39.062,40.039,23.438,55.664,0
1539618253.282,24.902,40.039,36.133,20.020,32.715,0
1539618253.286,27.344,39.062,24.902,10.742,27.832,0
1539618253.290,28.320,38.574,31.250,6.836,29.785,0
1539618253.294,35.645,39.062,38.574,16.602,9.766,0
1539618253.298,27.832,38.574,34.180,19.531,-13.672,0
1539618253.301,28.320,42.480,33.203,24.414,-4.395,0
1539618253.305,26.367,35.156,34.180,26.367,34.668,0
1539618253.309,29.785,32.715,40.527,22.949,32.227,0
1539618253.313,37.109,43.945,40.527,24.414,6.836,0
1539618253.317,30.273,44.434,32.715,22.949,27.832,0
1539618253.321,20.996,37.598,33.203,23.926,49.316,0
1539618253.325,35.156,41.504,33.203,25.391,75.684,0
1539618253.329,38.574,38.086,18.555,22.461,113.770,0
1539618253.333,26.855,39.551,22.461,24.414,98.145,0
1539618253.337,22.949,45.898,42.480,20.996,41.016,0
1539618253.341,20.020,25.391,39.551,13.184,-2.441,0
1539618253.344,25.879,23.926,37.109,12.695,-7.324,0
1539618253.348,27.832,37.598,33.691,10.254,-5.371,0
1539618253.352,23.926,42.480,28.809,14.160,46.387,0
1539618253.356,27.344,43.945,29.785,20.508,62.988,0
1539618253.360,34.180,41.992,34.180,21.973,62.988,0
1539618253.364,29.297,40.039,30.273,19.531,83.008,0
1539618253.368,37.109,44.434,25.391,24.902,43.457,0
1539618253.372,41.992,42.969,28.809,26.367,14.648,0
1539618253.376,35.156,38.086,24.414,27.832,18.066,0
1539618253.380,41.992,38.086,25.879,40.527,75.195,0
1539618253.383,41.992,38.574,37.109,35.156,68.848,0
1539618253.387,30.762,39.551,34.180,18.555,27.344,0
1539618253.391,27.832,35.156,35.645,18.066,57.617,0
1539618253.395,35.156,36.621,38.574,20.996,49.805,0
1539618253.399,35.645,39.551,39.062,20.508,20.508,0
1539618253.403,27.832,29.785,39.062,24.902,54.199,0
1539618253.407,22.461,38.086,34.180,20.996,120.117,0
1539618253.411,16.602,50.293,27.832,19.043,63.477,0
1539618253.415,20.996,45.410,27.832,20.996,-28.809,0
1539618253.419,25.879,43.945,29.785,28.809,-29.785,0
1539618253.423,36.621,49.316,30.273,34.668,0.977,0
1539618253.426,42.480,51.270,30.762,36.133,69.336,0
1539618253.430,28.320,40.039,28.809,28.809,117.188,0
1539618253.434,24.414,28.809,32.715,14.160,83.008,0
1539618253.438,34.668,41.016,33.691,14.648,23.926,0
1539618253.442,32.227,49.316,33.203,20.996,-26.855,0
1539618253.446,27.344,39.551,35.645,22.461,38.574,0
1539618253.450,35.156,31.738,36.133,19.531,68.359,0
1539618253.454,41.504,32.715,33.691,15.625,-30.762,0
1539618253.458,50.293,42.480,33.691,22.461,11.230,0
1539618253.462,53.711,41.992,36.621,26.855,49.316,0
1539618253.466,45.410,41.016,32.227,22.949,49.316,0
1539618253.469,40.527,42.480,22.461,20.996,79.590,0
1539618253.473,41.016,37.598,28.320,22.461,11.230,0
1539618253.477,34.668,39.062,30.762,22.461,-40.527,0
1539618253.481,21.973,41.992,20.996,17.090,-3.418,0
1539618253.485,26.855,39.551,26.367,20.996,-6.836,0
1539618253.489,20.020,31.250,34.180,20.020,4.883,0
1539618253.493,14.160,29.297,37.109,10.742,29.785,0
1539618253.497,20.996,34.668,42.480,12.207,2.441,0
1539618253.501,16.602,37.109,36.621,21.973,4.395,0
1539618253.505,27.832,44.434,32.715,26.367,79.590,0
1539618253.508,27.832,47.852,34.668,26.855,78.613,0
1539618253.512,31.738,41.504,34.180,29.297,65.430,0
1539618253.516,34.180,32.227,33.203,29.297,40.039,0
1539618253.520,30.762,34.180,35.156,34.668,35.645,0
1539618253.524,33.691,31.738,37.598,33.691,55.664,0
1539618253.528,30.273,31.250,39.062,30.762,12.207,0
1539618253.532,36.621,40.039,29.297,36.133,33.691,0
1539618253.536,44.434,49.316,26.855,40.039,71.777,0
1539618253.540,48.340,46.387,44.922,42.480,43.457,0
1539618253.544,38.574,39.551,45.898,31.250,21.973,0
1539618253.548,37.598,37.598,40.527,20.508,35.645,0
1539618253.551,36.621,21.484,38.574,18.066,64.941,0
1539618253.555,23.926,23.926,34.668,18.066,39.551,0
1539618253.559,28.809,41.504,30.762,19.043,28.320,0
1539618253.563,30.273,42.969,34.668,25.391,17.578,0
1539618253.567,27.344,40.527,34.180,23.438,40.039,0
1539618253.571,35.645,40.039,30.762,30.273,9.766,0
1539618253.575,47.363,42.969,41.504,41.016,-18.066,0
1539618253.579,39.551,40.039,46.387,43.457,29.297,0
1539618253.583,31.738,33.691,40.039,36.133,53.711,0
1539618253.587,34.180,27.344,31.250,33.203,29.785,0
1539618253.591,35.156,26.855,36.133,35.156,-8.789,0
1539618253.594,29.297,36.133,40.527,28.320,-20.996,0
1539618253.598,31.250,37.598,35.645,30.762,-23.438,0
1539618253.602,32.715,35.156,34.180,32.227,22.949,0
1539618253.606,29.297,39.062,37.598,24.902,80.566,0
1539618253.610,36.621,40.527,38.574,29.297,76.660,0
1539618253.614,44.922,32.715,37.598,39.062,67.871,0
1539618253.618,36.133,28.320,35.645,38.574,22.949,0
1539618253.622,31.738,36.133,33.691,38.574,-9.277,0
1539618253.626,43.945,39.062,35.645,37.598,30.273,0
1539618253.630,50.781,39.062,35.645,42.480,54.199,0
1539618253.633,35.645,43.945,35.645,40.039,42.969,0
1539618253.637,29.785,48.828,34.180,33.691,62.988,0
1539618253.641,35.156,44.922,28.809,32.227,15.625,0
1539618253.645,36.621,36.133,35.645,30.273,-30.273,0
1539618253.649,34.180,38.086,39.551,34.668,0.977,0
1539618253.653,35.156,41.992,36.133,36.133,22.949,0
1539618253.657,37.109,37.109,33.203,31.250,41.504,0
1539618253.661,29.785,30.762,35.645,25.879,48.340,0
1539618253.665,25.391,38.574,37.109,27.832,29.785,0
1539618253.669,38.574,50.293,39.551,29.297,5.371,0
1539618253.673,31.738,43.945,33.691,28.809,15.625,0
1539618253.676,22.949,40.527,37.109,27.344,42.480,0
1539618253.680,27.832,43.945,40.039,29.785,26.855,0
1539618253.684,29.785,43.457,28.809,34.180,44.434,0
1539618253.688,37.109,45.898,32.715,39.551,31.250,0
1539618253.692,46.875,42.969,42.969,42.480,-36.133,0
1539618253.696,40.527,41.992,41.016,38.086,-4.883,0
1539618253.700,31.738,40.527,43.457,35.645,45.898,0
1539618253.704,28.809,34.668,47.852,36.133,127.441,0
1539618253.708,22.461,36.133,39.551,30.762,59.570,0
1539618253.712,34.180,44.922,35.645,28.809,15.137,0
1539618253.716,33.691,41.016,31.738,28.320,54.199,0
1539618253.719,36.621,38.086,37.598,32.227,3.418,0
1539618253.723,41.992,43.945,40.527,33.691,-5.371,0
1539618253.727,42.480,43.945,32.227,39.062,-7.324,0
1539618253.731,47.852,40.039,32.715,42.969,0.488,0
1539618253.735,48.828,41.504,33.203,36.621,-12.695,0
1539618253.739,44.922,42.480,31.250,31.738,-10.742,0
1539618253.743,39.062,40.527,33.691,32.227,51.758,0
1539618253.747,47.852,45.410,40.527,35.645,-4.395,0
1539618253.751,43.457,41.016,42.480,33.203,7.324,0
1539618253.755,29.297,34.180,31.738,31.738,60.059,0
1539618253.758,30.273,44.434,27.832,40.527,32.227,0
1539618253.762,33.691,39.062,33.691,28.320,-20.996,0
1539618253.766,29.785,29.785,38.574,19.531,-0.977,0
1539618253.770,20.996,25.879,35.156,26.367,22.461,0
1539618253.774,25.391,29.297,35.156,27.344,7.324,0
1539618253.778,33.691,31.738,38.574,27.832,47.852,0
1539618253.782,31.250,34.180,37.109,26.855,28.320,0
1539618253.786,25.391,41.992,37.598,32.715,21.484,0
1539618253.790,29.297,35.156,40.527,34.180,-4.395,0
1539618253.794,35.156,33.691,44.434,33.203,23.438,0
1539618253.798,32.227,34.180,39.062,30.762,55.176,0
1539618253.801,32.715,36.133,38.086,38.574,47.852,0
1539618253.805,42.969,40.527,40.527,41.504,55.664,0
1539618253.809,27.832,34.180,35.156,26.367,-9.766,0
1539618253.813,21.484,35.156,29.297,25.391,28.809,0
1539618253.817,33.203,39.551,32.715,37.109,102.539,0
1539618253.821,35.645,38.574,36.621,33.203,55.176,0
1539618253.825,37.109,37.598,41.992,29.297,44.922,0
1539618253.829,35.645,41.016,44.922,32.715,58.105,0
1539618253.833,29.297,41.992,34.668,27.344,10.742,0
1539618253.837,27.344,36.133,27.832,26.367,8.789,0
1539618253.841,38.574,34.668,38.086,33.691,38.574,0
1539618253.844,37.109,33.203,44.434,33.691,12.207,0
1539618253.848,39.062,36.621,39.551,34.668,5.859,0
1539618253.852,33.203,41.016,31.250,38.574,45.410,0
1539618253.856,17.578,32.227,34.180,33.203,55.664,0
1539618253.860,21.973,29.785,43.945,28.320,80.566,0
1539618253.864,25.879,32.227,31.250,25.391,74.219,0
1539618253.868,12.695,29.297,26.367,20.996,19.531,0
1539618253.872,8.301,29.785,31.738,18.066,38.574,0
1539618253.876,22.461,39.062,27.832,21.484,78.125,0
1539618253.880,18.555,34.668,32.715,24.414,78.125,0
1539618253.883,14.160,31.738,35.645,22.461,64.453,0
1539618253.887,24.414,38.574,32.715,20.508,54.199,0
1539618253.891,28.809,43.457,34.668,26.855,17.578,0
1539618253.895,26.367,38.574,35.156,21.973,36.133,0
1539618253.899,24.902,32.715,30.273,16.602,46.387,0
1539618253.903,23.438,38.574,25.391,24.902,32.715,0
1539618253.907,29.297,39.551,24.414,24.414,51.758,0
1539618253.911,29.785,37.598,21.484,21.484,96.191,0
1539618253.915,29.297,45.898,18.555,20.996,94.727,0
1539618253.919,42.969,49.316,33.203,32.227,22.461,0
1539618253.923,42.480,41.016,40.039,30.273,11.719,0
1539618253.926,27.832,35.156,30.273,17.578,62.012,0
1539618253.930,30.762,42.480,36.621,23.438,16.602,0
1539618253.934,38.086,49.805,40.527,28.809,17.090,0
1539618253.938,28.809,38.086,22.461,20.508,59.570,0
1539618253.942,21.973,36.133,17.090,14.160,28.320,0
1539618253.946,21.973,35.156,28.320,15.625,57.617,0
1539618253.950,21.973,31.738,33.691,18.066,93.262,0
1539618253.954,24.902,35.645,33.203,21.973,39.062,0
1539618253.958,29.297,39.062,38.574,29.785,-11.719,0
1539618253.962,25.391,32.715,33.691,24.414,-42.480,0
1539618253.966,21.973,33.203,21.484,18.066,27.344,0
1539618253.969,25.879,33.203,27.832,21.973,49.805,0
1539618253.973,40.039,32.227,36.621,31.250,37.109,0
1539618253.977,42.480,41.504,36.133,34.180,55.664,0
1539618253.981,35.156,41.016,27.344,32.715,18.555,0
1539618253.985,43.457,33.691,27.344,36.621,23.438,0
1539618253.989,48.828,35.645,33.691,32.715,15.625,0
1539618253.993,42.480,44.434,39.551,27.344,19.531,0
1539618253.997,37.109,48.340,37.109,30.273,32.715,0
1539618254.001,34.668,39.062,35.645,30.273,55.664,0
1539618254.005,41.016,25.879,40.527,25.879,75.195,0
1539618254.008,37.598,29.297,22.461,26.855,93.750,0
1539618254.012,32.715,42.969,23.926,31.250,24.902,0
1539618254.016,29.297,42.969,43.457,30.273,-25.879,0
1539618254.020,21.973,28.809,39.062,22.461,11.719,0
1539618254.024,20.508,27.832,37.598,22.461,36.621,0
1539618254.028,20.508,39.062,38.086,30.762,20.020,0
1539618254.032,25.879,43.945,36.133,34.180,40.039,0
1539618254.036,28.320,36.133,25.391,34.180,32.227,0
1539618254.040,26.855,27.344,24.902,31.250,27.344,0
1539618254.044,25.879,36.621,31.250,26.367,72.754,0
1539618254.048,28.320,33.691,27.344,21.973,57.617,0
1539618254.051,37.109,32.227,31.738,21.973,26.367,0
1539618254.055,30.273,35.645,36.133,23.926,22.461,0
1539618254.059,23.438,37.109,32.227,27.832,75.195,0
1539618254.063,30.762,41.504,24.414,31.250,118.164,0
1539618254.067,32.715,38.574,19.043,26.855,60.059,0
1539618254.071,32.227,39.551,30.273,27.344,55.664,0
1539618254.075,29.297,36.133,38.086,26.367,37.598,0
1539618254.079,32.715,38.574,36.621,26.855,39.551,0
1539618254.083,33.691,40.039,35.645,30.762,62.012,0
1539618254.087,39.551,31.738,31.738,25.391,25.391,0
1539618254.091,43.457,37.109,35.156,28.809,27.344,0
1539618254.094,31.250,46.875,32.227,36.621,2.930,0
1539618254.098,28.320,40.527,21.973,32.715,-11.230,0
1539618254.102,38.574,33.203,32.715,32.227,-6.836,0
1539618254.106,32.715,32.715,43.945,34.668,-1.953,0
1539618254.110,21.973,35.645,35.645,25.391,6.836,0
1539618254.114,27.344,40.039,32.227,22.949,31.738,0
1539618254.118,24.902,41.992,36.621,32.227,46.875,0
1539618254.122,30.762,37.109,36.621,34.668,51.270,0
1539618254.126,35.645,31.250,38.574,33.203,62.500,0
1539618254.130,31.250,36.621,31.738,34.180,34.668,0
1539618254.133,28.809,35.156,28.809,32.227,11.230,0
1539618254.137,28.320,28.320,41.504,26.367,-12.695,0
1539618254.141,32.227,35.156,42.969,25.391,10.742,0
1539618254.145,34.180,41.016,40.527,30.273,62.500,0
1539618254.149,32.715,33.691,38.574,32.715,36.621,0
1539618254.153,41.016,39.551,37.109,35.156,1.953,0
1539618254.157,40.039,49.805,37.598,37.109,7.812,0
1539618254.161,35.156,45.410,27.344,27.344,32.227,0
1539618254.165,39.551,41.016,22.949,24.902,41.504,0
1539618254.169,40.527,43.945,30.273,36.133,41.992,1
1539618254.173,38.574,43.945,33.691,33.203,31.250,0
1539618254.176,30.273,35.156,36.621,26.855,14.160,0
1539618254.180,31.250,35.645,36.133,27.832,36.133,0
1539618254.184,32.715,45.410,31.738,26.855,62.012,0
1539618254.188,32.227,39.551,28.809,29.297,24.902,0
1539618254.192,50.781,34.180,39.551,47.363,-6.836,0
1539618254.196,44.922,44.922,37.598,52.246,71.777,0
1539618254.200,32.227,46.875,21.973,32.227,113.770,0
1539618254.204,31.250,41.992,26.367,24.902,57.617,0
1539618254.208,25.879,38.574,33.691,33.203,19.531,0
1539618254.212,32.715,35.156,36.133,30.762,28.809,0
1539618254.216,29.785,38.086,33.203,20.508,77.637,0
1539618254.219,30.762,43.945,30.273,21.973,53.711,0
1539618254.223,30.762,37.109,29.785,24.414,24.902,0
1539618254.227,28.320,36.133,30.762,21.973,49.805,0
1539618254.231,33.691,41.992,34.180,25.879,18.066,0
1539618254.235,32.715,47.852,41.504,33.203,-2.441,0
1539618254.239,30.762,48.340,40.039,31.738,59.082,0
1539618254.243,40.527,46.387,34.668,36.621,62.012,0
1539618254.247,36.621,42.969,38.574,40.039,31.738,0
1539618254.251,21.973,30.273,33.691,27.832,41.016,0
1539618254.255,22.461,35.156,24.414,25.391,21.484,0
1539618254.258,25.879,45.410,30.762,27.344,16.602,0
1539618254.262,20.020,42.969,39.062,22.949,-11.230,0
1539618254.266,19.043,35.645,39.062,26.855,-47.852,0
1539618254.270,27.344,38.574,37.109,27.832,-9.766,0
1539618254.274,36.621,45.410,35.645,28.320,3.418,0
1539618254.278,32.715,44.922,34.180,26.855,-7.812,0
1539618254.282,31.738,44.922,37.109,22.949,23.926,0
1539618254.286,33.203,45.410,43.457,24.902,-15.137,0
1539618254.290,23.926,42.969,42.969,28.809,-10.742,0
1539618254.294,36.133,43.457,37.598,29.297,25.879,0
1539618254.298,43.945,41.504,37.109,30.273,41.016,0
1539618254.301,38.574,37.598,38.086,30.273,46.387,0
1539618254.305,37.109,44.922,30.273,25.879,6.836,0
1539618254.309,28.809,44.434,29.785,19.531,26.855,0
1539618254.313,29.297,34.668,34.180,26.367,43.945,0
1539618254.317,25.391,31.250,32.227,32.227,23.438,0
1539618254.321,23.438,38.086,33.691,22.461,-6.348,0
1539618254.325,33.691,44.434,25.391,24.414,-19.531,0
1539618254.329,33.203,42.480,30.762,27.344,15.625,0
1539618254.333,30.762,31.738,45.898,24.902,67.871,0
1539618254.337,25.391,32.227,42.480,24.902,44.922,0
1539618254.341,18.555,34.180,40.039,24.902,13.184,0
1539618254.344,17.090,35.156,35.156,19.531,48.828,0
1539618254.348,22.949,35.645,34.180,22.461,66.406,0
1539618254.352,32.715,35.156,36.621,26.367,-4.883,0
1539618254.356,36.133,42.480,33.691,31.250,-3.418,0
1539618254.360,40.527,42.480,31.250,45.410,-4.883,0
1539618254.364,44.434,42.969,35.645,43.457,-35.645,0
1539618254.368,36.133,41.016,31.738,39.551,8.301,0
1539618254.372,30.762,34.668,34.180,37.598,25.391,0
1539618254.376,39.062,31.738,40.039,34.668,4.395,0
1539618254.380,37.109,26.855,32.715,32.227,7.812,0
1539618254.383,30.762,29.785,33.203,32.227,10.254,0
1539618254.387,35.156,44.922,50.293,39.062,30.762,0
1539618254.391,33.203,37.109,49.316,33.691,91.309,0
1539618254.395,30.273,29.785,37.109,23.438,88.379,0
1539618254.399,24.902,39.551,28.809,22.949,39.062,0
1539618254.403,35.156,41.504,24.414,29.785,46.387,0
1539618254.407,36.621,38.574,31.250,31.738,37.598,0
1539618254.411,25.879,34.668,36.133,23.926,8.789,0
1539618254.415,28.809,38.574,36.621,22.461,41.504,0
1539618254.419,31.738,36.621,36.621,27.344,13.672,0
1539618254.423,27.344,35.156,40.039,21.484,-8.789,0
1539618254.426,32.715,32.227,35.156,17.578,25.391,0
1539618254.430,28.809,39.551,33.203,19.531,25.391,0
1539618254.434,17.578,45.898,32.227,22.461,32.227,0
1539618254.438,19.043,29.297,25.879,19.043,38.574,0
1539618254.442,18.066,29.785,32.227,12.207,0.000,0
1539618254.446,17.090,42.480,35.156,18.555,32.227,0
1539618254.450,25.391,39.062,37.109,31.738,68.848,0
1539618254.454,27.832,27.832,38.574,29.297,29.297,0
1539618254.458,33.691,33.203,39.062,33.691,8.789,0
1539618254.462,45.410,41.504,42.969,43.945,8.301,0
1539618254.466,42.480,33.203,37.598,40.527,26.367,0
1539618254.469,32.715,32.227,35.156,38.086,56.641,0
1539618254.473,29.297,37.109,31.738,36.133,78.613,0
1539618254.477,37.109,37.109,32.715,40.527,75.195,0
1539618254.481,41.504,36.621,40.527,42.480,69.824,0
1539618254.485,38.086,37.598,38.574,39.551,56.152,0
1539618254.489,33.691,42.480,31.250,29.297,21.973,0
1539618254.493,28.320,38.086,30.762,25.879,78.125,0
1539618254.497,36.621,35.645,35.156,33.691,34.668,0
1539618254.501,36.133,44.434,38.086,30.273,10.742,0
1539618254.505,22.949,43.945,29.785,24.902,43.945,0
1539618254.508,25.879,39.551,22.461,20.996,69.824,0
1539618254.512,30.273,36.133,34.668,18.066,58.105,0
1539618254.516,28.809,39.062,43.945,18.555,20.996,0
1539618254.520,31.250,47.852,40.527,21.973,41.992,0
1539618254.524,28.320,43.457,25.391,21.484,57.129,0
1539618254.528,22.949,31.250,24.414,18.555,63.965,0
1539618254.532,25.391,30.273,38.574,16.602,43.945,0
1539618254.536,25.879,39.551,42.969,19.043,83.008,0
1539618254.540,29.785,40.039,40.527,22.949,96.680,0
1539618254.544,29.297,36.133,37.109,18.066,44.434,0
1539618254.548,22.461,38.574,32.715,20.996,28.809,0
1539618254.551,30.273,37.598,32.227,24.414,64.453,0
1539618254.555,32.715,36.621,31.250,24.414,55.176,0
1539618254.559,22.949,36.133,32.715,21.484,-5.371,0
1539618254.563,25.391,38.574,32.715,23.438,32.227,0
1539618254.567,28.809,39.062,29.297,28.809,76.172,0
1539618254.571,29.785,38.574,34.180,30.762,38.574,0
1539618254.575,37.109,39.062,41.992,40.527,34.180,0
1539618254.579,39.551,39.551,36.621,31.250,14.160,0
1539618254.583,35.156,35.645,33.691,25.391,7.324,0
1539618254.587,37.109,29.785,37.109,29.785,51.270,0
1539618254.591,35.645,36.133,33.203,27.344,62.012,0
1539618254.594,42.969,32.227,29.785,33.203,18.066,0
1539618254.598,48.340,33.691,32.227,37.598,-28.809,0
1539618254.602,38.086,42.480,31.738,29.297,-10.742,0
1539618254.606,41.016,39.062,33.691,27.344,34.180,0
1539618254.610,40.527,39.062,32.715,30.273,70.801,0
1539618254.614,41.992,42.969,34.180,32.715,42.480,0
1539618254.618,42.969,46.387,44.434,34.180,31.250,0
1539618254.622,29.785,40.527,39.551,24.902,20.996,0
1539618254.626,30.762,41.504,33.691,15.625,-1.465,0
1539618254.630,34.180,38.574,30.762,11.719,30.273,0
1539618254.633,37.598,36.621,32.715,17.090,-6.348,0
1539618254.637,44.922,36.133,31.250,26.855,14.648,0
1539618254.641,41.992,34.180,30.762,31.738,60.547,0
1539618254.645,32.227,37.109,34.180,33.691,21.973,0
1539618254.649,33.691,39.062,29.785,41.992,36.621,0
1539618254.653,36.621,41.016,27.344,39.551,-4.883,0
1539618254.657,30.762,41.016,35.156,36.621,5.371,0
1539618254.661,23.926,32.227,38.086,39.062,52.246,0
1539618254.665,31.738,37.598,41.016,43.945,22.949,0
1539618254.669,39.551,48.828,44.922,47.363,-19.043,0
1539618254.673,27.832,39.551,32.715,37.598,5.371,0
1539618254.676,22.949,34.668,27.344,33.691,53.711,0
1539618254.680,37.598,42.969,32.715,39.062,40.527,0
1539618254.684,42.969,38.086,38.574,41.504,28.809,0
1539618254.688,37.598,29.785,38.574,42.969,12.695,0
1539618254.692,28.320,34.668,34.180,32.715,64.941,0
1539618254.696,25.391,35.156,35.156,24.902,45.410,0
1539618254.700,28.320,39.062,28.809,29.785,20.996,0
1539618254.704,25.879,43.945,30.762,33.203,23.438,0
1539618254.708,26.367,44.434,36.621,33.691,24.414,0
1539618254.712,28.320,44.922,34.180,32.227,26.855,0
1539618254.716,35.645,43.457,37.598,37.109,6.348,0
1539618254.719,37.109,37.598,35.645,38.574,21.484,0
1539618254.723,32.715,35.645,39.062,34.668,61.035,0
1539618254.727,39.062,35.645,41.504,38.086,70.312,0
1539618254.731,37.598,29.297,34.668,35.645,25.879,0
1539618254.735,34.180,33.691,35.156,30.762,9.277,0
1539618254.739,38.574,42.969,35.156,31.250,59.082,0
1539618254.743,37.109,47.363,34.668,37.109,9.277,0
1539618254.747,33.203,49.805,35.156,35.156,-44.434,0
1539618254.751,32.227,47.852,31.738,29.297,-26.367,0
1539618254.755,28.320,39.062,27.344,33.691,13.184,0
1539618254.758,29.297,32.715,31.738,32.715,32.715,0
1539618254.762,42.969,45.410,23.926,43.945,34.668,0
1539618254.766,43.945,40.039,17.578,47.852,26.367,0
1539618254.770,29.785,30.762,31.250,27.832,-20.996,0
1539618254.774,28.809,37.109,40.039,27.344,11.230,0
1539618254.778,33.203,40.039,36.133,32.715,66.895,0
1539618254.782,27.832,43.945,33.203,30.273,9.766,0
1539618254.786,28.809,45.410,41.016,33.203,3.418,0
1539618254.790,29.785,40.039,40.039,30.273,15.625,0
1539618254.794,32.715,36.621,39.551,32.715,59.082,0
1539618254.798,27.832,35.156,38.574,32.715,147.461,0
1539618254.801,32.715,37.109,42.969,32.715,97.656,0
1539618254.805,29.785,41.992,36.621,26.855,21.484,0
1539618254.809,18.555,42.480,28.809,19.043,-1.465,0
1539618254.813,20.508,43.945,37.109,21.973,56.641,0
1539618254.817,30.762,41.504,35.156,29.785,74.219,0
1539618254.821,32.227,37.109,33.691,31.738,31.250,0
1539618254.825,22.949,37.109,38.086,23.926,12.207,0
1539618254.829,25.391,37.598,39.551,21.484,65.430,0
1539618254.833,28.320,33.691,41.016,29.297,52.734,0
1539618254.837,24.414,26.367,41.016,31.250,14.160,0
1539618254.841,23.926,30.762,34.180,22.949,-5.371,0
1539618254.844,29.297,35.156,27.832,20.996,-11.230,0
1539618254.848,26.367,36.621,28.320,24.902,34.180,0
1539618254.852,27.344,38.086,34.180,29.785,37.109,0
1539618254.856,29.785,41.016,42.969,34.668,52.734,0
1539618254.860,30.273,41.016,38.574,29.297,47.852,0
1539618254.864,25.391,35.156,28.320,18.066,-24.414,0
1539618254.868,20.508,26.855,31.738,23.926,1.953,0
1539618254.872,28.809,30.762,34.668,27.344,64.941,0
1539618254.876,29.297,31.738,31.738,19.531,44.922,0
1539618254.880,25.391,27.832,35.156,21.484,4.883,0
1539618254.883,28.320,33.203,31.250,23.926,-9.766,0
1539618254.887,26.855,32.715,25.879,23.926,44.434,0
1539618254.891,27.344,37.109,32.715,24.414,60.059,0
1539618254.895,22.949,43.457,28.809,20.996,67.383,0
1539618254.899,21.484,40.527,25.391,12.695,103.516,0
1539618254.903,20.996,40.527,36.133,15.137,79.590,0
1539618254.907,21.484,41.992,42.969,24.902,65.918,0
1539618254.911,25.391,42.969,31.250,17.578,36.621,0
1539618254.915,19.531,36.133,23.926,7.324,62.012,0
1539618254.919,16.113,23.926,35.156,13.184,29.785,0
1539618254.923,21.973,32.715,38.574,20.020,-4.395,0
1539618254.926,28.809,41.992,36.621,26.855,47.363,0
1539618254.930,30.762,41.016,40.039,28.320,13.672,0
1539618254.934,37.598,40.527,41.016,25.391,19.531,0
1539618254.938,38.086,32.715,32.715,26.855,11.719,0
1539618254.942,29.785,34.668,28.809,32.227,5.859,0
1539618254.946,39.062,39.062,43.945,43.457,76.660,0
1539618254.950,46.875,43.457,46.875,47.852,58.594,0
1539618254.954,39.062,45.898,40.527,40.527,49.805,0
1539618254.958,30.762,36.621,39.062,33.691,70.801,0
1539618254.962,31.738,25.879,41.992,37.598,32.715,0
1539618254.966,37.598,30.273,42.480,41.992,46.875,0
1539618254.969,29.297,40.527,41.504,31.738,60.059,0
1539618254.973,16.602,43.945,35.156,17.578,21.973,0
1539618254.977,20.996,43.457,32.227,14.160,-7.812,0
1539618254.981,24.902,43.945,34.180,13.672,23.926,0
1539618254.985,14.160,48.340,30.273,15.137,40.039,0
1539618254.989,8.789,43.945,29.297,17.090,-21.973,0
1539618254.993,8.301,40.039,31.250,13.672,-2.930,0
1539618254.997,11.719,42.969,31.250,16.113,25.391,0
1539618255.001,14.648,41.504,29.785,20.020,9.277,0
1539618255.005,13.672,39.062,33.203,13.672,23.926,0
1539618255.008,14.160,42.969,29.785,10.742,17.090,0
1539618255.012,27.344,41.992,29.297,16.602,-26.367,0
1539618255.016,31.738,40.527,33.691,18.555,-8.789,0
1539618255.020,21.973,44.922,29.297,12.695,-5.859,0
1539618255.024,17.090,47.363,30.273,18.066,-47.363,0
1539618255.028,30.762,50.293,28.320,30.273,-29.297,0
1539618255.032,42.969,50.293,26.855,33.203,24.414,0
1539618255.036,45.410,40.527,29.785,41.504,14.160,0
1539618255.040,56.152,29.785,29.785,50.781,-10.742,0
1539618255.044,59.570,42.480,38.086,50.293,50.293,0
1539618255.048,50.781,57.129,40.039,48.340,67.383,0
1539618255.051,44.434,51.270,32.715,43.945,10.254,0
1539618255.055,41.504,44.922,24.902,37.109,-1.465,0
1539618255.059,39.551,41.016,22.949,41.504,21.973,0
1539618255.063,49.805,44.434,39.062,52.246,-27.832,0
1539618255.067,41.992,48.828,46.387,41.992,16.602,0
1539618255.071,25.391,38.574,33.203,23.926,48.828,0
1539618255.075,24.902,36.133,30.762,25.879,43.945,0
1539618255.079,30.273,40.527,23.926,28.320,47.363,0
1539618255.083,31.250,43.457,20.508,19.531,-15.625,0
1539618255.087,24.902,41.992,33.203,17.578,50.781,0
1539618255.091,17.090,37.109,36.133,21.973,49.805,0
1539618255.094,19.043,37.598,40.039,29.785,32.715,0
1539618255.098,23.926,34.180,38.086,17.578,32.227,0
1539618255.102,20.996,37.109,27.832,6.836,-4.883,0
1539618255.106,19.531,40.527,21.973,17.090,7.812,0
1539618255.110,18.555,32.715,20.508,11.719,2.930,0
1539618255.114,15.137,37.598,30.273,9.766,36.621,0
1539618255.118,21.484,45.410,31.738,13.184,-1.465,0
1539618255.122,22.949,47.852,28.809,12.695,-15.137,0
1539618255.126,17.578,46.875,33.203,16.113,58.105,0
1539618255.130,18.555,41.992,33.203,20.508,71.777,0
1539618255.133,25.879,37.109,32.227,24.414,36.621,0
1539618255.137,29.297,36.621,39.551,24.414,8.789,0
1539618255.141,22.949,33.691,36.621,22.461,25.391,0
1539618255.145,32.227,35.156,32.227,29.297,64.941,0
1539618255.149,32.715,44.434,36.621,28.809,108.887,0
1539618255.153,26.367,41.504,29.297,23.438,65.918,0
1539618255.157,35.156,40.039,22.461,28.320,14.648,0
1539618255.161,34.180,46.875,33.203,30.273,22.461,0
1539618255.165,24.414,43.945,37.598,21.484,8.789,0
1539618255.169,21.973,40.039,34.668,18.066,21.973,0
1539618255.173,29.785,35.156,35.645,24.414,34.668,0
1539618255.176,33.203,35.645,38.574,25.391,15.625,0
1539618255.180,22.949,30.762,38.086,21.484,-13.184,0
1539618255.184,26.855,31.250,35.156,25.879,2.441,0
1539618255.188,23.926,40.527,24.414,18.555,79.102,0
1539618255.192,19.043,38.574,19.531,18.555,61.035,0
1539618255.196,22.949,42.480,27.832,22.461,33.691,0
1539618255.200,19.531,43.457,30.273,19.043,42.969,0
1539618255.204,25.879,39.551,35.156,22.461,-2.930,0
1539618255.208,24.414,33.203,37.598,22.461,-19.043,0
1539618255.212,15.137,28.809,31.738,21.484,-7.324,0
1539618255.216,19.043,34.668,33.203,26.367,50.781,0
1539618255.219,25.391,32.715,34.668,28.809,90.820,0
1539618255.223,21.484,34.668,27.832,24.902,75.195,0
1539618255.227,23.926,37.598,35.156,27.344,38.574,0
1539618255.231,34.180,33.203,44.922,35.645,14.648,0
1539618255.235,28.809,32.715,41.992,27.344,21.484,0
1539618255.239,28.320,34.668,32.715,22.461,10.742,0
1539618255.243,33.203,37.598,29.297,26.855,30.273,0
1539618255.247,47.852,38.574,31.738,37.109,-6.348,0
1539618255.251,40.039,33.691,32.227,35.156,-5.371,0
1539618255.255,24.414,30.273,27.832,22.461,46.875,0
1539618255.258,23.438,32.227,26.367,21.484,40.527,0
1539618255.262,24.414,34.668,32.227,21.973,53.711,0
1539618255.266,29.785,36.621,40.039,23.438,20.020,0
1539618255.270,23.438,31.738,41.016,25.879,15.625,0
1539618255.274,20.996,26.855,43.457,28.320,36.621,0
1539618255.278,29.297,26.367,45.410,26.855,16.602,0
1539618255.282,37.598,30.762,42.969,23.926,27.344,0
1539618255.286,41.992,46.387,42.969,31.250,-1.465,0
1539618255.290,40.527,42.969,38.086,33.691,-21.973,0
1539618255.294,41.992,32.227,28.809,31.738,-32.227,0
1539618255.298,29.785,35.156,28.809,32.227,-19.531,0
1539618255.301,32.715,39.062,37.109,30.762,40.527,0
1539618255.305,44.434,45.898,44.922,34.668,56.641,0
1539618255.309,33.691,37.598,35.645,38.086,43.945,0
1539618255.313,18.555,27.344,28.809,26.855,45.898,0
1539618255.317,19.043,29.297,35.645,27.832,36.621,0
1539618255.321,22.949,34.668,30.762,36.133,41.992,0
1539618255.325,31.738,36.133,38.086,31.738,58.594,0
1539618255.329,33.691,41.504,49.805,30.273,52.734,0
1539618255.333,29.785,42.969,46.875,35.645,27.344,0
1539618255.337,32.715,44.434,39.551,35.156,-12.207,0
1539618255.341,22.949,45.410,33.691,27.344,33.691,0
1539618255.344,22.949,35.645,37.598,24.902,60.059,0
1539618255.348,32.715,30.273,39.062,34.180,65.918,0
1539618255.352,33.203,29.785,34.668,41.992,69.824,0
1539618255.356,40.039,32.715,31.738,37.598,78.125,0
1539618255.360,39.062,41.504,34.668,31.738,61.523,0
1539618255.364,29.297,47.363,33.203,30.762,71.777,0
1539618255.368,25.879,41.504,32.227,35.156,50.293,0
1539618255.372,25.391,41.016,38.086,36.621,6.348,0
1539618255.376,27.832,43.945,39.551,34.180,20.508,0
1539618255.380,20.508,32.227,34.668,30.273,62.988,0
1539618255.383,25.391,31.250,34.180,35.645,46.875,0
1539618255.387,35.645,38.574,31.250,39.062,-37.598,0
1539618255.391,39.551,48.340,31.738,37.598,25.391,0
1539618255.395,41.504,52.246,29.297,33.203,82.520,0
1539618255.399,37.109,44.922,22.461,27.344,55.176,0
1539618255.403,45.898,40.527,29.785,29.297,50.781,0
1539618255.407,48.828,39.062,36.133,28.320,51.270,0
1539618255.411,29.297,38.574,34.180,29.297,56.152,0
1539618255.415,34.668,37.598,35.645,29.297,52.246,0
1539618255.419,40.039,37.109,36.621,32.227,4.883,0
1539618255.423,46.875,37.109,38.574,39.551,24.414,0
1539618255.426,46.387,42.480,32.715,32.715,87.891,1
1539618255.430,43.945,49.316,28.809,33.691,15.137,0
1539618255.434,41.016,45.410,32.715,33.691,4.395,0
1539618255.438,38.574,37.109,33.203,31.738,62.500,0
1539618255.442,43.945,33.203,30.273,37.109,24.414,0
1539618255.446,43.457,33.203,31.738,30.762,41.016,0
1539618255.450,42.480,48.340,27.344,34.180,62.012,0
1539618255.454,40.527,41.992,27.832,36.133,11.230,0
1539618255.458,38.574,31.250,36.133,29.297,13.672,0
1539618255.462,39.062,44.922,41.992,33.691,26.855,0
1539618255.466,40.527,50.781,46.875,39.062,46.875,0
1539618255.469,43.945,48.828,46.875,38.086,69.336,0
1539618255.473,37.109,41.504,35.156,34.668,50.781,0
1539618255.477,38.574,37.598,26.855,26.855,-17.578,0
1539618255.481,34.180,39.551,26.367,23.926,-10.742,0
1539618255.485,42.969,42.480,28.320,28.320,-8.789,0
1539618255.489,47.363,36.621,30.273,30.273,-20.996,0
1539618255.493,32.227,35.156,27.832,24.414,36.133,0
1539618255.497,31.738,35.645,32.715,26.367,30.273,0
1539618255.501,35.156,30.273,36.133,36.133,33.691,0
1539618255.505,45.410,42.480,40.039,44.434,69.824,0
1539618255.508,39.062,45.898,39.551,44.922,74.219,0
1539618255.512,28.809,37.598,34.668,43.945,34.668,0
1539618255.516,30.273,36.621,38.086,42.969,39.062,0
1539618255.520,36.133,41.016,44.922,44.922,73.242,0
1539618255.524,40.039,35.156,45.898,43.457,60.547,0
1539618255.528,35.156,27.832,48.340,41.992,76.172,0
1539618255.532,31.738,28.809,48.340,41.992,36.133,0
1539618255.536,38.574,30.273,45.898,45.898,-6.348,0
1539618255.540,39.551,36.621,42.480,45.410,19.043,0
1539618255.544,42.480,38.574,45.898,45.410,25.391,0
1539618255.548,41.992,35.645,44.434,45.898,74.219,0
1539618255.551,41.992,30.273,39.062,38.574,132.812,0
1539618255.555,39.551,35.645,35.156,32.227,79.590,0
1539618255.559,37.598,41.504,28.809,32.227,42.480,0
1539618255.563,39.551,35.156,38.574,35.645,86.914,0
1539618255.567,41.504,41.504,46.387,35.156,65.918,0
1539618255.571,43.457,44.434,37.598,34.668,66.895,0
1539618255.575,32.715,37.109,36.133,34.180,6.836,0
1539618255.579,37.109,39.062,37.598,40.039,-48.340,0
1539618255.583,44.922,41.992,31.250,40.039,-30.273,0
1539618255.587,32.715,38.574,30.762,34.668,-7.812,0
1539618255.591,26.855,31.250,36.133,32.227,59.570,0
1539618255.594,31.250,27.344,43.945,34.668,56.641,0
1539618255.598,39.551,40.527,48.828,43.945,64.453,0
1539618255.602,39.551,43.945,46.875,40.039,21.484,0
1539618255.606,29.297,35.645,43.945,29.297,-25.391,0
1539618255.610,30.273,35.645,44.922,28.809,27.344,0
1539618255.614,42.480,42.480,45.410,39.062,18.555,0
1539618255.618,37.109,38.086,38.086,36.621,48.828,0
1539618255.622,28.809,33.203,30.273,30.762,97.168,0
1539618255.626,35.156,42.969,33.691,34.668,79.102,0
1539618255.630,36.621,41.504,32.715,31.738,48.828,0
1539618255.633,33.691,30.273,27.344,31.738,22.461,0
1539618255.637,31.250,24.902,27.344,33.203,-29.785,0
1539618255.641,22.949,31.738,27.344,27.832,-11.719,0
1539618255.645,16.602,41.016,30.762,23.438,45.898,0
1539618255.649,24.902,38.086,41.992,28.320,77.148,0
1539618255.653,35.156,33.691,50.781,37.598,43.945,0
1539618255.657,30.273,32.227,41.504,31.250,7.812,0
1539618255.661,23.926,32.227,30.273,19.043,18.555,0
1539618255.665,29.297,38.574,27.344,21.484,17.578,0
1539618255.669,33.203,38.086,31.250,25.391,42.480,0
1539618255.673,34.180,31.738,41.504,28.320,31.250,0
1539618255.676,24.902,29.297,39.551,26.855,61.523,0
1539618255.680,27.344,40.527,34.668,29.297,104.980,0
1539618255.684,38.086,40.039,39.551,27.832,91.797,0
1539618255.688,25.391,31.250,43.945,19.531,60.059,0
1539618255.692,12.695,29.297,36.621,14.648,61.523,0
1539618255.696,11.230,26.367,34.180,14.160,48.828,0
1539618255.700,20.020,32.227,38.574,21.973,41.992,0
1539618255.704,24.902,42.969,32.715,18.066,17.090,0
1539618255.708,30.762,41.016,34.668,14.648,23.438,0
1539618255.712,35.645,38.086,34.180,26.367,34.668,0
1539618255.716,31.250,37.598,32.227,32.227,35.645,0
1539618255.719,36.133,35.645,35.645,31.738,45.410,0
1539618255.723,37.109,36.133,36.133,33.203,10.742,0
1539618255.727,48.828,38.086,38.086,35.156,49.805,0
1539618255.731,45.898,36.621,30.762,34.668,89.355,0
1539618255.735,35.156,39.062,30.762,30.762,51.270,0
1539618255.739,33.203,39.062,34.668,21.484,-2.930,0
1539618255.743,24.902,35.156,35.645,20.508,53.711,0
1539618255.747,29.297,27.344,38.086,17.578,48.340,0
1539618255.751,32.227,27.832,34.668,15.625,-1.465,0
1539618255.755,32.227,36.621,26.855,17.578,17.578,0
1539618255.758,22.461,39.551,27.344,19.043,52.734,0
1539618255.762,15.137,38.086,33.691,14.648,60.547,0
1539618255.766,19.043,35.645,39.062,9.766,31.250,0
1539618255.770,12.695,35.645,41.504,8.301,-42.969,0
1539618255.774,10.254,34.668,38.574,1.953,-72.266,0
1539618255.778,20.508,38.086,28.320,2.930,-0.977,0
1539618255.782,22.949,45.410,32.715,12.695,36.133,0
1539618255.786,15.625,40.527,43.457,18.066,19.043,0
1539618255.790,15.625,34.668,38.574,15.625,62.500,0
1539618255.794,17.090,25.391,36.621,15.137,11.719,0
1539618255.798,21.973,23.926,32.715,18.555,-72.754,0
1539618255.801,25.391,41.992,32.227,19.531,-37.598,0
1539618255.805,33.203,37.598,39.551,19.531,34.668,0
1539618255.809,35.645,33.203,31.250,22.461,37.598,0
1539618255.813,43.457,41.992,32.715,29.297,17.578,0
1539618255.817,59.570,43.457,42.969,28.809,37.598,0
1539618255.821,42.969,35.156,35.645,18.066,29.297,0
1539618255.825,32.227,39.062,33.691,20.020,60.547,0
1539618255.829,30.762,32.715,39.062,28.809,59.082,0
1539618255.833,31.250,28.809,37.598,32.715,34.668,0
1539618255.837,34.668,42.480,40.039,37.109,56.152,0
1539618255.841,34.668,41.016,44.922,41.504,7.812,0
1539618255.844,32.227,32.715,41.016,41.016,-11.719,0
1539618255.848,37.109,41.992,42.969,47.363,20.996,0
1539618255.852,41.504,50.293,37.109,50.293,52.246,0
1539618255.856,36.133,42.480,43.945,48.828,43.457,0
1539618255.860,35.645,38.086,48.828,39.551,56.641,0
1539618255.864,30.273,32.715,36.621,32.715,16.602,0
1539618255.868,30.273,28.320,41.504,31.738,-10.254,0
1539618255.872,32.227,35.645,38.086,25.391,26.367,0
1539618255.876,38.086,44.922,34.668,31.250,36.133,0
1539618255.880,44.922,45.898,40.527,33.203,76.660,0
1539618255.883,35.156,34.180,33.203,31.250,77.637,0
1539618255.887,27.832,32.227,32.227,36.133,39.551,0
1539618255.891,34.180,39.551,37.598,28.809,15.137,0
1539618255.895,33.203,39.551,40.527,23.926,86.426,0
1539618255.899,34.668,35.645,41.504,23.926,94.727,0
1539618255.903,38.574,36.621,36.133,27.832,55.176,0
1539618255.907,44.434,45.410,36.621,39.551,27.832,0
1539618255.911,38.086,42.969,33.691,29.785,-15.625,0
1539618255.915,27.344,35.645,29.785,20.508,-7.812,0
1539618255.919,30.762,32.227,38.086,22.461,1.953,0
1539618255.923,31.738,39.551,41.992,27.832,27.832,0
1539618255.926,32.227,36.133,32.715,28.809,27.344,0
1539618255.930,26.855,33.691,27.344,23.438,0.977,0
1539618255.934,22.949,42.969,30.273,19.043,14.648,0
1539618255.938,23.438,37.109,32.715,17.090,44.434,0
1539618255.942,25.391,38.086,29.297,19.043,40.039,0
1539618255.946,33.203,50.781,40.527,28.320,44.922,0
1539618255.950,34.180,47.363,52.246,35.156,10.254,0
1539618255.954,22.949,37.109,39.551,27.832,19.531,0
1539618255.958,16.602,30.762,29.785,21.973,9.277,0
1539618255.962,18.066,28.809,39.551,22.949,-27.344,0
1539618255.966,19.043,24.414,39.062,29.297,24.414,0
1539618255.969,20.996,24.902,37.109,26.367,15.625,0
1539618255.973,21.973,38.574,33.203,19.043,6.836,0
1539618255.977,24.902,40.527,26.855,22.461,48.828,0
1539618255.981,29.297,40.527,37.598,27.832,23.438,0
1539618255.985,29.785,41.504,35.156,28.320,25.391,0
1539618255.989,33.691,41.504,29.297,26.367,47.363,0
1539618255.993,28.809,35.156,36.621,28.320,-5.371,0
1539618255.997,23.438,31.738,38.086,20.020,23.926,0
1539618256.001,32.227,35.156,39.062,23.926,62.988,0
1539618256.005,38.086,29.785,41.992,32.715,-21.973,0
1539618256.008,35.645,31.738,27.344,26.855,0.488,0
1539618256.012,33.691,42.480,27.344,27.344,82.520,0
1539618256.016,35.156,44.922,36.133,33.691,97.656,0
1539618256.020,39.551,42.969,30.762,36.133,102.051,0
1539618256.024,32.227,33.691,28.809,25.391,98.145,0
1539618256.028,22.461,31.738,36.621,18.066,73.242,0
1539618256.032,20.996,30.762,36.621,23.926,100.586,0
1539618256.036,27.832,35.156,31.250,31.738,88.379,0
1539618256.040,42.480,39.062,36.133,42.480,41.504,0
1539618256.044,33.203,38.086,34.668,42.969,3.906,0
1539618256.048,26.855,36.621,33.691,30.762,8.789,0
1539618256.051,21.973,30.762,33.203,26.855,74.707,0
1539618256.055,20.508,33.203,34.180,22.461,125.977,0
1539618256.059,35.645,33.691,41.016,19.043,95.215,0
1539618256.063,30.762,34.668,43.457,28.320,21.973,0
1539618256.067,31.250,31.250,36.621,34.668,-9.766,0
1539618256.071,42.480,23.438,34.668,40.039,17.578,0
1539618256.075,43.457,37.109,42.480,42.480,70.312,0
1539618256.079,37.598,51.270,41.504,37.109,79.590,0
1539618256.083,38.574,44.434,33.691,28.809,44.922,0
1539618256.087,43.945,35.156,39.551,33.203,16.113,0
1539618256.091,38.086,40.039,43.945,36.621,16.602,0
1539618256.094,31.738,36.133,38.574,25.879,-7.324,0
1539618256.098,32.715,36.133,29.297,31.250,-26.855,0
1539618256.102,43.457,35.156,32.715,37.109,-3.906,0
1539618256.106,39.551,29.297,40.527,28.809,-4.395,0
1539618256.110,34.668,43.945,36.621,36.621,20.996,0
1539618256.114,43.457,42.480,41.504,41.992,27.832,0
1539618256.118,45.410,38.574,46.875,36.621,3.418,0
1539618256.122,39.062,41.504,46.387,36.621,40.039,0
1539618256.126,41.992,39.551,39.551,35.645,66.895,0
1539618256.130,42.480,47.852,36.133,36.621,75.195,0
1539618256.133,30.762,45.898,37.598,28.320,40.039,0
1539618256.137,29.297,40.527,32.227,30.762,2.930,0
1539618256.141,33.203,36.621,33.203,35.156,-14.160,0
1539618256.145,31.738,31.738,35.156,30.273,13.184,0
1539618256.149,34.668,42.480,27.832,26.855,68.848,0
1539618256.153,32.227,55.664,29.297,23.438,10.254,0
1539618256.157,31.250,49.805,33.203,28.320,-5.371,0
1539618256.161,27.344,39.551,32.715,30.273,62.012,0
1539618256.165,28.809,40.039,39.062,25.391,84.473,0
1539618256.169,27.832,46.875,37.598,26.367,75.195,0
1539618256.173,24.902,44.434,29.785,31.250,37.598,0
1539618256.176,26.367,37.109,30.273,23.438,0.000,0
1539618256.180,23.438,38.086,38.574,21.484,42.969,0
1539618256.184,27.344,36.133,34.180,31.250,84.961,0
1539618256.188,40.527,37.598,31.250,36.133,50.781,0
1539618256.192,42.969,38.574,33.691,37.109,42.969,0
1539618256.196,39.551,38.574,31.250,36.133,55.664,0
1539618256.200,38.574,49.805,36.133,34.668,48.828,0
1539618256.204,32.715,45.898,32.227,31.250,31.738,0
1539618256.208,34.668,36.133,28.809,25.391,10.254,0
1539618256.212,44.434,43.945,37.598,35.645,7.812,0
1539618256.216,48.340,40.527,39.551,41.992,11.230,0
1539618256.219,34.180,36.621,32.227,30.273,17.578,0
1539618256.223,26.855,42.480,31.250,25.879,20.508,0
1539618256.227,32.715,45.898,32.227,27.832,27.344,0
1539618256.231,35.645,41.016,37.598,29.297,17.578,0
1539618256.235,38.086,36.133,32.715,37.598,11.230,0
1539618256.239,45.898,41.992,32.227,33.203,45.898,0
1539618256.243,39.551,43.945,33.203,28.809,34.180,0
1539618256.247,32.227,35.645,25.879,28.320,-7.812,0
1539618256.251,40.527,36.133,30.273,26.367,45.410,0
1539618256.255,33.203,44.434,35.645,37.598,54.688,0
1539618256.258,27.832,44.922,38.574,40.039,44.434,0
1539618256.262,34.180,45.410,36.621,39.551,62.988,0
1539618256.266,39.062,38.574,35.645,43.457,56.152,0
1539618256.270,47.852,33.203,38.086,45.898,35.156,0
1539618256.274,39.062,36.133,35.645,40.039,46.387,0
1539618256.278,31.250,37.109,33.203,37.598,22.461,0
1539618256.282,36.621,30.273,35.156,35.645,24.414,0
1539618256.286,37.598,31.250,41.016,35.645,45.410,0
1539618256.290,34.668,42.480,40.039,33.691,31.738,0
1539618256.294,35.156,45.898,35.156,25.879,12.695,0
1539618256.298,35.645,45.410,31.250,29.297,58.594,0
1539618256.301,31.738,40.039,35.156,30.273,56.641,0
1539618256.305,41.504,43.457,44.922,36.621,-5.859,0
1539618256.309,43.457,40.527,35.156,34.668,48.340,0
1539618256.313,36.133,28.320,26.367,29.297,38.086,0
1539618256.317,42.480,33.691,32.227,29.297,11.719,0
1539618256.321,41.504,42.480,28.809,28.320,-19.043,0
1539618256.325,35.645,41.016,16.602,34.668,-33.691,0
1539618256.329,43.945,39.062,29.297,38.086,2.441,0
1539618256.333,38.086,41.504,45.898,26.367,-2.930,0
1539618256.337,33.203,43.457,39.551,25.391,56.641,0
1539618256.341,42.969,32.227,37.109,42.969,80.566,0
1539618256.344,41.504,27.344,39.551,42.969,35.156,0
1539618256.348,28.320,32.227,26.855,33.203,-44.922,0
1539618256.352,27.832,33.203,20.020,31.250,-27.832,0
1539618256.356,30.762,34.180,40.527,33.691,42.969,0
1539618256.360,30.762,33.203,42.480,36.133,22.949,0
1539618256.364,37.598,37.598,30.273,34.180,20.020,0
1539618256.368,35.156,37.109,31.738,29.785,2.441,0
1539618256.372,31.738,38.086,36.133,37.109,25.391,0
1539618256.376,32.227,28.320,41.504,40.527,8.301,0
1539618256.380,28.809,20.020,41.504,34.668,1.465,0
1539618256.383,21.484,31.738,35.645,29.785,34.180,0
1539618256.387,23.926,35.156,35.156,30.273,48.828,0
1539618256.391,33.203,33.691,38.574,31.738,54.199,0
1539618256.395,32.715,30.273,34.668,30.273,58.105,0
1539618256.399,23.926,29.785,29.785,28.809,39.551,0
1539618256.403,20.996,32.227,32.227,27.832,52.734,0
1539618256.407,30.762,31.738,35.645,29.297,64.941,0
1539618256.411,33.691,32.715,41.504,35.156,50.293,0
1539618256.415,26.367,26.367,27.832,26.855,31.738,0
1539618256.419,30.273,35.645,14.160,24.902,52.734,0
1539618256.423,32.227,41.504,32.715,35.156,60.547,0
1539618256.426,24.414,35.645,40.039,27.344,3.418,0
1539618256.430,21.484,33.691,29.785,20.020,-18.066,0
1539618256.434,31.738,26.367,32.715,22.949,29.297,0
1539618256.438,38.574,30.762,28.809,31.250,11.719,0
1539618256.442,33.691,35.156,26.367,35.156,-32.715,0
1539618256.446,25.879,24.902,38.574,25.391,47.852,0
1539618256.450,33.691,31.738,35.156,23.438,40.039,0
1539618256.454,34.668,39.062,35.156,27.344,1.465,0
1539618256.458,28.320,31.250,37.109,32.715,11.230,0
1539618256.462,34.180,31.250,31.738,31.738,25.879,0
1539618256.466,34.668,39.062,31.738,31.250,33.203,0
1539618256.469,33.203,38.574,31.738,37.598,-5.371,0
1539618256.473,33.203,33.203,24.414,35.156,29.785,0
1539618256.477,31.738,35.645,27.344,34.668,53.711,0
1539618256.481,32.227,37.109,36.621,35.156,3.418,0
1539618256.485,32.227,32.715,31.250,35.156,7.324,0
1539618256.489,30.273,34.180,36.133,37.598,49.316,0
1539618256.493,29.297,41.992,46.387,28.809,60.059,0
1539618256.497,25.879,39.551,38.574,21.484,75.684,0
1539618256.501,23.438,37.109,36.621,32.715,98.145,0
1539618256.505,30.273,43.457,38.086,35.156,46.387,0
1539618256.508,37.109,45.898,29.297,32.227,60.547,0
1539618256.512,42.969,44.434,28.320,29.297,33.203,0
1539618256.516,43.945,33.203,33.691,30.273,5.371,0
1539618256.520,43.945,30.762,41.016,37.598,46.875,0
1539618256.524,42.480,42.480,34.180,29.297,-13.184,0
1539618256.528,35.156,42.480,23.926,19.531,-15.625,0
1539618256.532,38.086,45.410,45.410,34.180,11.719,0
1539618256.536,40.527,41.504,45.410,44.434,-19.531,0
1539618256.540,24.414,24.902,34.668,27.832,-4.395,0
1539618256.544,20.996,27.832,41.992,20.996,48.828,0
1539618256.548,22.949,25.391,38.086,23.926,8.301,0
1539618256.551,33.691,22.461,40.039,27.832,-12.695,0
1539618256.555,35.645,30.273,44.922,30.762,34.180,0
1539618256.559,32.227,30.762,38.574,29.785,11.230,0
1539618256.563,34.668,27.832,33.203,26.367,5.371,0
1539618256.567,35.156,28.320,24.414,22.461,1.953,0
1539618256.571,25.879,30.762,23.438,16.113,9.277,0
1539618256.575,19.531,36.621,37.109,16.602,40.039,0
1539618256.579,26.855,37.598,39.062,27.344,25.879,0
1539618256.583,27.832,33.691,31.738,27.832,15.625,0
1539618256.587,27.832,30.273,29.297,19.043,10.742,0
1539618256.591,29.785,29.297,33.691,20.508,38.086,0
1539618256.594,27.344,22.949,35.156,24.902,35.156,0
1539618256.598,28.320,19.531,29.297,27.344,-35.156,0
1539618256.602,34.668,30.273,29.785,34.668,-13.672,0
1539618256.606,32.715,34.668,32.715,31.738,78.613,0
1539618256.610,25.391,31.738,33.691,23.926,27.832,0
1539618256.614,22.461,30.762,33.691,22.949,14.160,0
1539618256.618,24.902,39.551,32.227,22.461,80.078,0
1539618256.622,23.926,39.062,30.273,23.438,38.574,0
1539618256.626,24.902,39.062,32.227,25.391,21.973,0
1539618256.630,30.762,38.574,45.898,36.621,-7.324,0
1539618256.633,32.227,31.250,42.480,36.621,25.879,0
1539618256.637,32.715,33.203,33.203,27.344,71.289,0
1539618256.641,33.203,41.016,38.086,29.297,17.090,0
1539618256.645,34.180,44.434,36.133,36.133,1.953,0
1539618256.649,38.574,41.992,32.715,39.551,37.109,0
1539618256.653,42.969,42.480,41.504,50.293,39.551,0
1539618256.657,33.691,32.715,39.062,40.039,0.488,0
1539618256.661,34.668,34.180,39.551,32.227,36.621,0
1539618256.665,34.180,38.574,44.922,41.016,34.180,0
1539618256.669,35.156,34.180,42.969,35.645,19.531,0
1539618256.673,37.109,41.504,37.598,29.297,58.594,0
1539618256.676,22.949,37.598,35.156,23.926,42.969,0
1539618256.680,26.367,36.621,31.738,20.996,24.902,0
1539618256.684,37.598,38.574,28.809,33.691,45.410,0
1539618256.688,39.062,37.109,36.621,35.645,-13.184,0
1539618256.692,36.621,36.621,36.621,26.367,-59.082,0
1539618256.696,33.691,31.738,35.645,28.809,-30.762,0
1539618256.700,34.668,32.715,38.086,31.250,17.578,1
1539618256.704,37.109,38.086,32.715,30.273,33.203,0
1539618256.708,35.156,41.016,37.598,33.203,3.906,0
1539618256.712,31.738,45.898,38.574,28.320,0.000,0
1539618256.716,32.715,40.039,36.133,28.809,26.367,0
1539618256.719,32.227,35.156,36.133,30.273,31.250,0
1539618256.723,25.879,35.156,29.785,25.391,31.250,0
1539618256.727,26.855,35.645,34.668,28.320,45.898,0
1539618256.731,33.203,31.250,39.062,26.367,34.668,0
1539618256.735,45.410,25.391,36.133,29.297,37.109,0
1539618256.739,37.598,31.250,29.297,37.109,78.613,0
1539618256.743,28.809,39.551,30.273,38.086,91.797,0
1539618256.747,39.551,39.551,43.945,41.016,6.836,0
1539618256.751,39.551,38.574,47.363,45.410,33.691,0
1539618256.755,42.969,39.551,41.016,40.039,32.715,0
1539618256.758,37.598,36.621,31.738,31.250,21.973,0
1539618256.762,31.250,34.180,27.344,28.809,24.414,0
1539618256.766,30.762,38.086,32.715,23.926,47.852,0
1539618256.770,32.227,38.086,36.621,30.762,48.340,0
1539618256.774,40.039,29.785,33.691,40.039,-12.207,0
1539618256.778,36.133,28.809,30.273,28.320,40.527,0
1539618256.782,31.738,29.785,36.621,22.949,88.379,0
1539618256.786,39.551,38.574,41.992,38.574,130.859,0
1539618256.790,41.992,44.434,40.527,34.668,148.438,0
1539618256.794,40.527,44.922,41.504,33.203,66.895,0
1539618256.798,30.762,46.387,37.598,42.969,22.949,0
1539618256.801,23.438,38.574,32.227,35.156,-19.531,0
1539618256.805,25.391,34.668,28.809,25.879,-6.836,0
1539618256.809,26.367,38.574,30.762,32.715,24.902,0
1539618256.813,26.855,30.273,39.062,29.785,0.977,0
1539618256.817,20.508,24.902,28.320,15.625,58.594,0
1539618256.821,19.531,31.250,33.203,20.020,53.711,0
1539618256.825,21.973,26.855,45.410,25.391,27.344,0
1539618256.829,20.020,39.062,39.062,20.020,40.527,0
1539618256.833,20.508,44.922,39.062,24.902,33.691,0
1539618256.837,26.855,34.668,43.457,26.855,25.391,0
1539618256.841,25.391,38.574,37.598,20.508,25.879,0
1539618256.844,25.391,36.621,34.668,23.926,12.695,0
1539618256.848,33.691,30.273,39.551,29.785,67.871,0
1539618256.852,30.762,33.203,38.574,24.414,68.359,0
1539618256.856,23.926,36.621,32.227,18.555,0.977,0
1539618256.860,22.949,39.551,33.203,20.508,-0.488,0
1539618256.864,23.926,42.969,36.133,24.414,60.547,0
1539618256.868,20.996,36.133,36.621,18.555,69.336,0
1539618256.872,21.484,27.344,35.645,22.949,35.645,0
1539618256.876,28.320,30.762,35.156,27.344,18.555,0
1539618256.880,24.902,34.180,36.133,25.391,-3.418,0
1539618256.883,29.297,33.691,38.086,32.227,-6.836,0
1539618256.887,40.039,32.227,33.203,35.645,37.598,0
1539618256.891,39.551,34.668,35.645,34.180,46.875,0
1539618256.895,31.250,42.969,40.039,32.227,30.273,0
1539618256.899,33.203,49.805,42.480,28.809,15.137,0
1539618256.903,38.086,43.457,38.574,23.438,21.484,0
1539618256.907,35.645,36.133,33.691,24.414,44.922,0
1539618256.911,37.109,43.457,37.598,32.715,-2.441,0
1539618256.915,37.109,47.363,31.250,23.926,-14.648,0
1539618256.919,34.180,39.551,33.203,13.672,54.688,0
1539618256.923,34.180,39.551,42.969,11.230,48.340,0
1539618256.926,41.016,46.387,36.621,11.719,35.156,0
1539618256.930,47.363,45.410,34.668,16.602,63.965,0
1539618256.934,43.945,42.969,36.621,17.578,34.668,0
1539618256.938,39.551,38.574,35.156,21.484,17.578,0
1539618256.942,30.273,37.109,35.645,24.902,-6.836,0
1539618256.946,21.484,37.109,40.039,24.414,-34.180,0
1539618256.950,20.508,40.527,42.480,24.902,31.738,0
1539618256.954,21.973,40.039,36.133,21.973,59.082,0
1539618256.958,24.414,26.855,30.273,20.996,56.152,0
1539618256.962,20.020,34.180,28.320,20.508,130.371,0
1539618256.966,29.785,53.223,36.621,20.996,122.070,0
1539618256.969,38.086,50.293,36.621,30.273,53.711,0
1539618256.973,38.086,32.227,26.855,28.809,13.672,0
1539618256.977,50.293,38.086,20.996,29.785,31.250,0
1539618256.981,46.875,50.781,32.715,36.133,53.711,0
1539618256.985,43.457,37.598,45.898,38.574,28.320,0
1539618256.989,38.574,32.715,40.039,28.809,12.207,0
1539618256.993,30.762,38.574,34.668,22.949,40.039,0
1539618256.997,36.621,42.969,31.250,35.156,62.012,0
1539618257.001,34.180,44.922,33.203,37.109,14.160,0
1539618257.005,24.902,38.086,30.762,32.715,-25.879,0
1539618257.008,27.832,28.809,29.297,33.691,-38.574,0
1539618257.012,32.715,30.762,36.621,37.109,-20.020,0
1539618257.016,26.855,35.156,37.598,38.086,24.902,0
1539618257.020,29.785,35.645,37.109,37.598,51.270,0
1539618257.024,41.992,37.598,39.551,36.621,38.574,0
1539618257.028,40.527,33.691,39.551,33.691,36.621,0
1539618257.032,31.250,33.203,32.715,28.809,50.293,0
1539618257.036,31.250,31.250,27.344,23.926,39.062,0
1539618257.040,31.250,35.645,33.203,17.578,41.504,0
1539618257.044,28.320,51.270,29.297,19.043,56.641,0
1539618257.048,32.227,44.434,24.902,26.367,78.125,0
1539618257.051,36.133,30.762,33.691,18.066,-5.859,0
1539618257.055,31.738,40.527,39.551,20.508,-33.203,0
1539618257.059,34.180,47.852,37.598,26.367,69.824,0
1539618257.063,39.062,41.504,39.062,29.785,72.266,0
1539618257.067,37.109,44.922,36.621,36.133,-17.578,0
1539618257.071,43.945,45.410,37.598,41.992,-18.066,0
1539618257.075,45.410,36.621,44.922,45.410,50.293,0
1539618257.079,37.109,35.645,43.457,41.016,0.000,0
1539618257.083,36.133,33.691,33.203,40.039,-38.086,0
1539618257.087,42.480,36.621,35.645,41.016,18.066,0
1539618257.091,42.969,46.387,45.410,40.527,29.297,0
1539618257.094,34.180,38.574,44.922,33.203,29.785,0
1539618257.098,30.762,36.133,39.062,25.879,60.547,0
1539618257.102,28.809,41.992,22.461,28.320,111.328,0
1539618257.106,34.668,41.992,29.785,31.250,92.773,0
1539618257.110,36.621,35.645,42.480,29.785,97.168,0
1539618257.114,29.297,40.527,42.969,25.391,95.703,0
1539618257.118,28.320,41.016,43.945,25.391,9.766,0
1539618257.122,33.203,38.574,43.457,37.109,3.418,0
1539618257.126,38.086,46.387,49.316,48.340,71.777,0
1539618257.130,37.109,45.898,51.270,44.922,-1.953,0
1539618257.133,29.785,44.434,49.316,40.527,-46.387,0
1539618257.137,27.344,39.062,46.875,39.551,-20.508,0
1539618257.141,26.855,42.480,41.016,35.645,0.488,0
1539618257.145,31.250,57.617,50.781,36.133,-3.418,0
1539618257.149,27.832,55.664,58.105,29.785,-81.543,0
1539618257.153,9.277,51.758,51.758,13.184,-45.898,0
1539618257.157,-4.883,52.734,45.410,-5.859,6.836,0
1539618257.161,-6.348,60.059,53.223,-9.766,7.324,0
1539618257.165,-10.742,67.871,65.430,-15.137,15.625,0
1539618257.169,-23.438,65.918,63.477,-31.738,27.344,0
1539618257.173,-51.270,59.082,61.035,-58.594,5.859,0
1539618257.176,-80.566,63.965,63.965,-81.055,-19.531,0
1539618257.180,-89.355,78.613,66.406,-91.309,-11.230,0
1539618257.184,-104.980,81.543,75.195,-112.793,25.879,0
1539618257.188,-130.859,81.055,76.660,-139.160,80.566,0
1539618257.192,-138.184,93.262,78.125,-142.090,77.148,0
1539618257.196,-142.578,92.773,82.031,-147.949,32.227,0
1539618257.200,-143.555,90.332,83.496,-162.109,8.301,0
1539618257.204,-146.973,99.609,88.379,-163.086,11.230,0
1539618257.208,-168.457,97.656,93.262,-172.852,51.270,0
1539618257.212,-175.293,99.121,92.285,-180.664,80.566,0
1539618257.216,-179.199,95.215,88.867,-177.734,51.270,0
1539618257.219,-176.758,85.449,96.680,-169.922,77.637,0
1539618257.223,-168.945,94.238,100.098,-174.805,74.219,0
1539618257.227,-171.387,101.074,91.309,-181.152,30.762,0
1539618257.231,-169.434,98.633,89.355,-178.223,44.434,0
1539618257.235,-161.133,101.074,85.938,-169.434,15.625,0
1539618257.239,-150.879,101.074,86.914,-154.297,36.133,0
1539618257.243,-147.461,96.191,88.867,-150.391,28.809,0
1539618257.247,-144.043,94.727,77.637,-149.902,62.012,0
1539618257.251,-130.371,94.238,74.219,-133.789,82.520,0
1539618257.255,-117.676,86.914,82.520,-120.605,40.527,0
1539618257.258,-117.188,79.102,72.266,-119.629,50.293,0
1539618257.262,-122.070,84.473,66.895,-113.770,24.902,0
1539618257.266,-114.746,92.285,68.848,-104.492,46.387,0
1539618257.270,-103.516,83.984,61.523,-104.004,50.781,0
1539618257.274,-93.750,75.195,51.758,-98.145,14.648,0
1539618257.278,-81.055,77.148,56.152,-82.520,48.340,0
1539618257.282,-68.848,71.289,57.129,-71.777,83.496,0
1539618257.286,-58.105,59.082,44.922,-60.059,74.707,0
1539618257.290,-47.852,59.570,35.645,-48.828,18.066,0
1539618257.294,-33.691,62.012,25.391,-40.527,4.883,0
1539618257.298,-15.137,52.734,23.438,-23.438,6.836,0
1539618257.301,7.324,39.551,22.949,-1.953,46.875,0
1539618257.305,20.020,38.086,17.578,15.625,64.453,0
1539618257.309,24.902,36.133,12.207,19.531,-5.371,0
1539618257.313,33.691,23.926,8.301,26.855,-20.508,0
1539618257.317,46.875,9.766,7.324,40.527,-19.531,0
1539618257.321,61.523,5.371,8.301,43.457,-39.062,0
1539618257.325,66.406,9.766,3.418,59.082,17.578,0
1539618257.329,77.637,12.207,-2.930,80.078,55.664,0
1539618257.333,86.914,8.789,-3.418,85.938,32.715,0
1539618257.337,103.027,5.371,1.465,102.051,44.922,0
1539618257.341,118.652,2.930,-4.395,116.699,17.578,0
1539618257.344,120.117,-5.371,-18.066,113.770,-15.137,0
1539618257.348,123.535,-19.531,-16.113,119.629,45.898,0
1539618257.352,131.836,-19.043,-3.906,129.883,47.852,0
1539618257.356,138.672,-9.277,0.977,137.207,38.086,0
1539618257.360,134.277,-12.695,-4.395,140.137,18.066,0
1539618257.364,132.812,-15.625,-10.254,136.719,12.207,0
1539618257.368,133.301,-20.508,-16.602,134.277,35.156,0
1539618257.372,139.160,-18.555,-13.184,135.742,-15.137,0
1539618257.376,140.137,-13.672,-8.789,138.184,-1.953,0
1539618257.380,142.578,-16.113,-7.812,142.090,71.289,0
1539618257.383,158.203,-18.066,-6.348,146.484,86.914,0
1539618257.387,157.227,-18.555,-11.719,143.555,72.754,0
1539618257.391,145.996,-15.137,-15.137,142.090,34.668,0
1539618257.395,142.578,-8.301,-13.672,146.973,15.625,0
1539618257.399,150.391,-4.883,-11.230,147.461,93.750,0
1539618257.403,152.344,-6.348,-9.277,147.461,100.098,0
1539618257.407,144.531,-5.859,-3.906,145.996,57.617,0
1539618257.411,146.973,-4.883,5.859,140.137,101.562,0
1539618257.415,145.020,-7.812,0.977,136.719,41.504,0
1539618257.419,135.742,-9.766,-4.883,124.512,1.953,0
1539618257.423,133.301,-10.742,-0.977,113.770,3.418,0
1539618257.426,128.418,-11.230,2.930,113.281,-7.324,0
1539618257.430,125.000,-2.930,5.371,109.375,12.207,0
1539618257.434,129.395,2.930,5.371,106.445,-13.184,0
1539618257.438,129.883,0.000,8.301,113.281,-17.578,0
1539618257.442,124.023,3.906,13.672,115.234,55.176,0
1539618257.446,124.512,8.301,13.672,119.629,100.586,0
1539618257.450,125.977,9.766,12.207,114.258,56.641,0
1539618257.454,123.535,6.836,13.672,113.281,68.359,0
1539618257.458,117.676,3.906,17.578,115.723,25.879,0
1539618257.462,106.934,11.230,16.113,105.469,-25.391,0
1539618257.466,103.516,17.578,15.137,100.098,27.832,0
1539618257.469,101.562,18.066,22.461,96.191,41.016,0
1539618257.473,102.539,18.555,21.484,93.750,39.551,0
1539618257.477,95.215,21.484,17.090,90.820,54.688,0
1539618257.481,96.680,19.531,14.160,91.309,46.875,0
1539618257.485,107.422,16.602,21.973,92.285,45.410,0
1539618257.489,98.145,23.926,36.133,95.703,58.594,0
1539618257.493,93.750,12.207,33.203,89.844,16.602,0
1539618257.497,90.332,6.836,21.484,77.148,27.832,0
1539618257.501,74.707,19.043,20.508,64.941,17.090,0
1539618257.505,73.730,25.391,22.949,63.965,23.926,0
1539618257.508,79.102,25.391,22.461,73.242,48.828,0
1539618257.512,73.730,18.555,18.555,69.336,31.250,0
1539618257.516,77.148,23.438,12.695,70.801,7.324,0
1539618257.520,78.125,22.949,14.160,72.754,-21.484,0
1539618257.524,71.289,20.020,33.691,70.312,35.156,0
1539618257.528,71.289,17.090,37.598,69.824,81.055,0
1539618257.532,65.430,20.996,33.691,68.848,-1.953,0
1539618257.536,56.641,26.855,36.133,63.477,14.648,0
1539618257.540,57.617,29.297,33.203,59.570,74.219,0
1539618257.544,65.430,34.180,34.180,57.129,41.504,0
1539618257.548,55.664,33.691,35.645,45.410,11.230,0
1539618257.551,55.176,33.691,33.691,51.758,58.594,0
1539618257.555,56.152,29.785,34.180,51.270,50.781,0
1539618257.559,45.410,27.832,32.227,44.922,20.508,0
1539618257.563,42.969,21.973,30.762,51.270,26.367,0
1539618257.567,44.922,22.461,26.855,52.734,34.668,0
1539618257.571,47.363,31.250,23.926,48.340,81.543,0
1539618257.575,45.410,27.344,33.203,47.363,40.039,0
1539618257.579,49.316,29.297,35.156,42.969,58.594,0
1539618257.583,47.363,31.250,30.273,44.434,53.223,0
1539618257.587,41.992,29.785,33.203,45.410,1.465,0
1539618257.591,46.387,33.691,34.668,41.992,48.828,0
1539618257.594,43.457,31.250,29.297,39.062,43.457,0
1539618257.598,39.062,30.762,32.227,42.969,-4.883,0
1539618257.602,39.062,27.832,31.250,39.062,21.973,0
1539618257.606,38.574,27.832,25.391,28.320,67.871,0
1539618257.610,41.992,38.086,30.273,29.297,64.453,0
1539618257.614,45.898,38.086,36.133,40.039,53.711,0
1539618257.618,39.551,34.180,31.250,41.016,67.383,0
1539618257.622,38.086,34.668,31.250,42.480,64.941,0
1539618257.626,37.109,37.109,26.855,42.480,52.246,0
1539618257.630,37.598,38.086,20.020,42.480,36.133,0
1539618257.633,36.621,37.109,29.297,44.434,-12.207,0
1539618257.637,32.715,36.133,36.133,38.086,-1.465,0
1539618257.641,35.156,36.133,32.227,36.621,63.965,0
1539618257.645,33.691,31.738,28.320,38.086,55.664,0
1539618257.649,27.344,24.902,33.691,30.273,-0.977,0
1539618257.653,17.578,35.645,34.180,25.879,-5.859,0
1539618257.657,20.020,38.574,30.762,28.320,27.344,0
1539618257.661,36.621,30.273,33.691,26.367,30.273,0
1539618257.665,39.062,39.062,37.598,30.762,-1.953,0
1539618257.669,40.527,45.410,36.621,39.551,-27.832,0
1539618257.673,40.039,39.062,31.738,36.133,9.766,0
1539618257.676,39.062,34.180,31.738,32.227,47.852,0
1539618257.680,37.598,37.598,30.762,30.273,-1.465,0
1539618257.684,28.320,30.273,32.227,25.391,-15.625,0
1539618257.688,36.133,33.203,39.062,29.297,2.930,0
1539618257.692,34.668,40.039,34.668,33.691,-12.695,0
1539618257.696,27.832,33.691,29.297,25.391,-19.531,0
1539618257.700,30.762,33.203,27.344,21.973,-8.301,0
1539618257.704,25.391,37.598,29.785,21.484,60.059,0
1539618257.708,22.461,38.574,34.180,25.391,68.848,0
1539618257.712,27.832,37.598,35.645,31.738,66.895,0
1539618257.716,33.691,29.785,33.203,24.414,67.383,0
1539618257.719,35.156,31.250,33.203,28.320,39.551,0
1539618257.723,36.621,43.945,42.480,41.016,101.562,0
1539618257.727,37.598,38.086,38.086,40.039,83.496,0
1539618257.731,31.738,29.297,30.273,27.832,88.379,0
1539618257.735,39.062,30.273,34.180,36.133,104.004,0
1539618257.739,41.992,30.762,38.086,43.945,18.555,0
1539618257.743,38.574,32.715,31.250,37.109,-48.340,0
1539618257.747,37.598,40.039,18.066,36.133,-30.273,0
1539618257.751,37.109,37.598,22.461,34.180,15.137,0
1539618257.755,34.668,36.133,35.645,30.273,14.160,0
1539618257.758,32.715,45.410,40.039,24.902,10.742,0
1539618257.762,31.250,43.945,27.832,22.461,22.949,0
1539618257.766,30.762,34.180,22.949,24.902,28.320,0
1539618257.770,30.762,33.203,38.574,28.809,20.508,0
1539618257.774,20.508,39.551,46.387,27.832,33.203,0
1539618257.778,23.926,36.133,43.457,21.484,7.812,0
1539618257.782,35.156,36.133,36.133,24.414,-29.785,0
1539618257.786,24.902,45.898,33.691,17.578,53.223,0
1539618257.790,21.973,45.410,36.621,18.555,69.824,0
1539618257.794,34.668,39.062,30.273,21.484,27.832,0
1539618257.798,26.855,36.133,29.297,18.555,34.180,0
1539618257.801,24.414,42.969,29.785,22.949,44.434,0
1539618257.805,34.180,45.898,31.250,26.855,68.848,0
1539618257.809,42.480,32.227,38.086,31.250,29.297,0
1539618257.813,45.410,36.133,34.180,28.320,48.828,0
1539618257.817,50.781,52.734,38.086,44.922,71.777,0
1539618257.821,42.969,49.316,34.668,41.504,-1.465,0
1539618257.825,38.086,39.551,35.645,35.156,12.207,0
1539618257.829,51.270,34.180,46.875,45.410,52.734,0
1539618257.833,51.758,35.156,37.109,39.062,41.992,0
1539618257.837,44.434,40.527,37.598,37.109,0.977,0
1539618257.841,46.875,36.621,42.969,45.410,21.484,0
1539618257.844,43.457,28.809,38.574,48.340,34.668,0
1539618257.848,35.156,35.645,31.738,40.527,-27.344,0
1539618257.852,41.992,43.945,30.273,38.086,34.180,0
1539618257.856,34.668,38.574,35.156,35.156,69.336,0
1539618257.860,25.391,37.109,37.598,28.320,37.598,0
1539618257.864,27.832,40.039,36.133,29.297,61.035,0
1539618257.868,26.367,40.527,31.250,31.250,51.758,0
1539618257.872,28.809,39.551,32.227,29.297,18.555,0
1539618257.876,31.738,31.250,37.109,27.344,17.578,0
1539618257.880,28.809,29.785,35.645,25.391,-4.883,0
1539618257.883,29.297,45.410,34.668,20.996,0.000,0
1539618257.887,33.203,44.922,35.156,16.113,62.012,0
1539618257.891,27.832,29.785,38.086,13.672,65.918,0
1539618257.895,30.762,31.250,30.762,20.996,32.715,0
1539618257.899,38.574,41.016,32.227,28.320,0.977,0
1539618257.903,38.574,36.133,45.410,32.715,0.977,0
1539618257.907,41.504,27.344,44.434,37.109,6.348,0
1539618257.911,37.598,36.621,29.785,40.039,12.207,0
1539618257.915,45.410,47.363,29.785,41.016,43.457,0
1539618257.919,52.246,49.805,38.086,45.898,58.105,0
1539618257.923,49.316,42.969,35.156,47.852,30.273,0
1539618257.926,41.992,36.133,33.203,45.410,25.391,0
1539618257.930,41.016,38.086,30.273,43.945,30.273,0
1539618257.934,55.664,34.668,38.086,46.875,0.000,0
1539618257.938,54.199,38.086,43.945,46.875,38.086,0
1539618257.942,44.434,41.992,35.156,37.109,41.016,0
1539618257.946,44.434,35.156,38.574,40.039,-14.648,0
1539618257.950,45.898,35.156,43.457,44.434,8.301,0
1539618257.954,45.898,39.551,41.016,38.086,35.156,0
1539618257.958,31.738,41.016,37.598,32.227,51.758,0
1539618257.962,17.578,39.551,37.109,25.391,47.852,0
1539618257.966,18.066,40.527,31.250,20.020,-21.484,0
1539618257.969,20.020,32.227,26.367,19.043,-51.758,0
1539618257.973,13.672,30.273,32.715,17.090,-19.531,0
1539618257.977,15.137,33.691,27.344,13.672,-45.410,0
1539618257.981,20.508,39.551,23.926,16.113,-25.879,0
1539618257.985,17.578,47.363,36.621,12.695,-11.230,0
1539618257.989,24.902,31.738,38.086,7.324,-7.812,0
1539618257.993,28.320,26.855,33.203,5.859,43.945,0
1539618257.997,37.109,41.016,30.273,17.578,31.250,0
1539618258.001,47.363,49.805,30.273,27.344,-15.625,0
1539618258.005,48.340,49.316,25.879,22.949,19.531,0
1539618258.008,64.453,48.828,24.414,29.297,22.461,0
1539618258.012,69.824,50.781,25.391,33.203,24.414,0
1539618258.016,56.641,44.922,29.785,34.668,50.293,0
1539618258.020,54.199,38.086,34.668,38.086,63.965,0
1539618258.024,54.199,38.086,34.668,41.992,61.035,0
1539618258.028,47.363,37.598,33.203,49.805,-16.113,0
1539618258.032,43.457,42.969,36.133,57.129,1.465,0
1539618258.036,44.922,42.480,39.551,58.594,57.129,0
1539618258.040,32.227,34.180,36.621,47.363,27.344,0
1539618258.044,35.156,35.645,35.645,44.922,37.598,0
1539618258.048,37.598,40.039,30.273,47.852,79.102,0
1539618258.051,19.531,33.691,34.180,33.203,59.570,0
1539618258.055,26.367,24.902,40.039,24.902,31.738,0
1539618258.059,26.367,22.461,36.621,26.367,-5.859,0
1539618258.063,19.531,26.367,33.691,25.391,11.230,0
1539618258.067,28.809,31.738,31.738,27.344,25.391,0
1539618258.071,29.785,31.250,29.297,21.973,-24.902,1
1539618258.075,22.461,38.086,29.297,20.508,31.738,0
1539618258.079,24.902,38.574,33.203,25.391,74.219,0
1539618258.083,29.785,33.691,24.902,31.738,75.195,0
1539618258.087,28.320,33.691,20.020,27.344,82.520,0
1539618258.091,20.508,35.156,37.598,13.672,46.387,0
1539618258.094,10.254,33.691,45.898,12.695,-26.367,0
1539618258.098,14.160,31.738,46.875,20.508,-26.367,0
1539618258.102,17.578,27.344,40.039,13.672,49.316,0
1539618258.106,11.230,33.203,29.785,4.395,75.684,0
1539618258.110,12.695,39.551,29.297,11.230,76.660,0
1539618258.114,18.066,32.715,34.180,11.230,38.086,0
1539618258.118,23.438,33.691,32.227,10.742,23.926,0
1539618258.122,24.414,40.527,29.785,22.461,41.016,0
1539618258.126,25.879,42.969,25.391,32.227,57.129,0
1539618258.130,30.273,45.898,26.367,34.180,87.402,0
1539618258.133,29.785,39.062,31.738,36.621,70.312,0
1539618258.137,30.273,32.227,31.250,36.133,60.059,0
1539618258.141,32.715,37.598,36.133,35.156,46.387,0
1539618258.145,37.598,34.668,38.574,41.016,29.297,0
1539618258.149,35.645,23.438,36.621,40.039,27.344,0
1539618258.153,29.785,33.203,28.809,32.715,8.789,0
1539618258.157,35.156,46.875,29.785,37.109,12.207,0
1539618258.161,32.715,44.922,35.645,24.414,20.020,0
1539618258.165,25.879,41.504,36.621,19.043,35.645,0
1539618258.169,23.926,37.598,32.227,31.250,14.648,0
1539618258.173,22.461,33.203,28.809,28.809,30.273,0
1539618258.176,23.438,28.320,30.273,25.879,-8.301,0
1539618258.180,26.855,29.785,28.809,24.414,-7.324,0
1539618258.184,27.344,36.621,20.996,24.902,33.691,0
1539618258.188,27.344,33.203,23.926,31.250,5.371,0
1539618258.192,24.414,35.645,34.180,35.156,22.461,0
1539618258.196,23.438,43.945,38.574,38.574,42.480,0
1539618258.200,19.531,32.715,34.668,33.203,27.832,0
1539618258.204,18.066,28.320,33.203,23.926,16.113,0
1539618258.208,19.531,31.738,35.156,24.902,41.016,0
1539618258.212,24.902,40.039,35.645,26.855,57.617,0
1539618258.216,25.391,35.156,29.297,22.461,48.340,0
1539618258.219,19.531,26.367,23.438,14.160,39.551,0
1539618258.223,17.578,29.785,25.879,16.113,58.105,0
1539618258.227,18.555,28.320,29.297,16.113,47.852,0
1539618258.231,20.020,34.180,33.691,17.578,13.672,0
1539618258.235,19.531,39.551,35.156,19.531,24.902,0
1539618258.239,27.344,41.992,27.344,18.555,64.941,0
1539618258.243,32.227,38.086,24.902,25.879,24.414,0
1539618258.247,30.762,35.156,35.156,26.367,33.203,0
1539618258.251,31.250,38.086,39.062,25.879,62.012,0
1539618258.255,31.738,41.504,35.645,30.273,47.363,0
1539618258.258,39.062,40.039,35.156,32.715,3.418,0
1539618258.262,37.109,36.133,34.180,26.855,-15.625,0
1539618258.266,34.668,30.273,31.738,20.508,50.781,0
1539618258.270,39.062,25.879,30.273,22.949,49.316,0
1539618258.274,41.992,36.133,33.203,28.809,68.359,0
1539618258.278,42.480,40.039,43.457,29.785,59.570,0
1539618258.282,43.945,32.227,45.410,30.762,20.020,0
1539618258.286,44.434,40.039,39.062,33.691,47.363,0
1539618258.290,39.062,41.016,32.715,34.668,5.859,0
1539618258.294,35.645,37.109,34.668,28.809,-6.836,0
1539618258.298,41.016,34.180,41.504,35.156,5.371,0
1539618258.301,43.945,29.297,35.156,41.992,-4.395,0
1539618258.305,47.852,42.480,35.156,38.086,19.531,0
1539618258.309,49.805,51.270,35.645,39.062,46.875,0
1539618258.313,43.945,38.574,29.297,35.156,8.789,0
1539618258.317,48.340,39.062,41.504,38.086,-24.902,0
1539618258.321,47.852,43.945,42.480,32.227,41.504,0
1539618258.325,31.738,41.016,31.738,19.531,108.398,0
1539618258.329,30.273,39.062,32.227,25.879,83.984,0
1539618258.333,39.551,29.785,29.297,27.832,28.320,0
1539618258.337,33.203,33.691,20.020,23.438,24.414,0
1539618258.341,26.855,33.691,23.926,24.414,18.066,0
1539618258.344,36.133,26.855,35.645,29.785,60.547,0
1539618258.348,38.086,35.156,26.367,27.344,84.473,0
1539618258.352,33.203,47.363,25.879,23.438,44.434,0
1539618258.356,32.227,43.945,41.992,25.391,32.715,0
1539618258.360,40.039,35.645,38.574,25.879,55.664,0
1539618258.364,43.945,41.016,31.738,20.020,95.215,0
1539618258.368,28.809,38.574,31.738,15.137,77.148,0
1539618258.372,29.785,34.668,30.273,22.949,45.898,0
1539618258.376,36.621,41.992,33.691,29.297,61.035,0
1539618258.380,34.668,41.992,36.133,30.273,27.344,0
1539618258.383,31.738,38.086,36.621,32.715,9.766,0
1539618258.387,34.668,37.109,35.645,30.273,53.711,0
1539618258.391,37.598,31.250,38.086,36.621,27.832,0
1539618258.395,30.273,33.691,33.691,43.945,57.617,0
1539618258.399,29.297,37.598,30.273,42.969,69.336,0
1539618258.403,28.809,35.156,38.086,34.668,20.020,0
1539618258.407,25.879,43.457,33.691,29.785,15.137,0
1539618258.411,35.645,54.688,41.504,41.016,6.348,0
1539618258.415,34.180,42.480,47.363,38.574,5.371,0
1539618258.419,22.949,30.762,34.668,32.715,41.504,0
1539618258.423,23.438,29.297,26.367,29.785,38.574,0
1539618258.426,30.273,24.902,23.926,34.180,16.602,0
1539618258.430,41.016,28.320,30.273,35.156,39.551,0
1539618258.434,35.645,45.898,37.109,28.809,44.922,0
1539618258.438,26.367,46.875,44.922,30.762,40.527,0
1539618258.442,30.762,36.133,46.387,31.250,9.766,0
1539618258.446,26.855,37.598,31.250,22.461,41.504,0
1539618258.450,28.320,42.969,32.227,26.855,73.730,0
1539618258.454,29.785,40.527,38.574,30.762,50.293,0
1539618258.458,25.879,31.250,32.227,27.344,39.062,0
1539618258.462,30.273,31.250,33.691,31.738,33.691,0
1539618258.466,38.086,40.527,33.691,35.645,66.895,0
1539618258.469,41.992,41.504,31.738,37.109,41.016,0
1539618258.473,41.016,40.039,41.992,39.062,-33.203,0
1539618258.477,45.410,41.016,42.969,38.574,-4.395,0
1539618258.481,43.945,38.574,36.621,34.668,63.965,0
1539618258.485,38.086,35.156,37.109,39.062,51.270,0
1539618258.489,35.156,29.297,30.273,35.645,98.145,0
1539618258.493,32.715,32.227,24.414,33.203,26.367,0
1539618258.497,34.668,36.133,32.715,38.086,0.977,0
1539618258.501,30.762,38.086,36.133,36.621,49.316,0
1539618258.505,35.156,36.133,37.598,38.574,15.137,0
1539618258.508,35.156,26.367,40.527,36.621,7.324,0
1539618258.512,25.879,31.738,36.621,36.133,33.691,0
1539618258.516,22.461,39.062,34.668,36.133,31.738,0
1539618258.520,34.180,45.410,40.527,41.016,19.531,0
1539618258.524,43.945,44.922,34.180,47.363,57.617,0
1539618258.528,30.273,34.668,26.855,41.504,39.551,0
1539618258.532,32.715,35.645,33.203,35.156,19.043,0
1539618258.536,47.852,35.156,29.785,38.086,5.859,0
1539618258.540,36.621,33.691,28.320,34.180,-1.465,0
1539618258.544,31.250,36.133,38.574,29.785,15.625,0
1539618258.548,30.762,37.598,40.527,32.227,32.227,0
1539618258.551,30.273,36.133,38.086,33.203,55.176,0
1539618258.555,32.227,33.691,40.527,31.250,13.184,0
1539618258.559,29.297,35.645,42.969,30.762,28.320,0
1539618258.563,27.832,36.133,39.062,29.297,9.766,0
1539618258.567,37.109,37.598,41.992,34.180,9.766,0
1539618258.571,34.180,44.922,42.969,29.785,52.246,0
1539618258.575,30.273,37.109,35.645,25.879,33.203,0
1539618258.579,43.945,33.203,26.367,30.762,74.219,0
1539618258.583,43.945,44.434,25.879,28.320,86.426,0
1539618258.587,31.738,44.434,35.645,27.832,59.082,0
1539618258.591,22.461,31.738,38.086,19.531,16.602,0
1539618258.594,28.809,34.668,32.715,19.043,27.832,0
1539618258.598,30.273,44.922,30.273,30.273,49.316,0
1539618258.602,26.855,44.922,30.762,27.344,19.531,0
1539618258.606,29.785,39.551,30.762,20.020,55.664,0
1539618258.610,35.156,37.109,33.203,23.926,57.129,0
1539618258.614,26.855,43.457,34.668,22.461,-12.695,0
1539618258.618,22.949,34.180,38.574,22.461,-24.414,0
1539618258.622,21.484,30.762,40.039,26.855,30.273,0
1539618258.626,22.461,41.016,34.668,22.461,61.035,0
1539618258.630,19.531,39.551,35.645,16.602,57.617,0
1539618258.633,23.438,36.621,30.762,19.531,64.941,0
1539618258.637,33.203,33.203,33.203,29.785,29.297,0
1539618258.641,32.715,38.574,49.316,33.691,17.578,0
1539618258.645,31.250,43.457,44.922,25.879,31.250,0
1539618258.649,27.832,37.109,39.551,14.648,24.414,0
1539618258.653,19.531,30.762,33.691,14.160,44.922,0
1539618258.657,20.508,36.133,24.902,19.043,-13.184,0
1539618258.661,33.691,46.387,34.180,27.832,-11.230,0
1539618258.665,29.785,41.504,40.039,31.738,-5.859,0
1539618258.669,16.602,41.016,30.762,23.438,2.441,0
1539618258.673,14.648,40.527,22.461,18.555,59.570,0
1539618258.676,16.113,29.297,21.973,12.207,35.156,0
1539618258.680,20.996,27.832,36.621,18.066,12.207,0
1539618258.684,29.297,30.762,43.457,22.949,-6.836,0
1539618258.688,19.043,38.086,35.645,19.043,-11.719,0
1539618258.692,29.785,41.504,30.273,17.090,36.133,0
1539618258.696,41.504,36.133,36.133,23.926,35.645,0
1539618258.700,25.879,33.203,39.062,26.367,28.320,0
1539618258.704,25.391,30.762,34.180,21.484,13.672,0
1539618258.708,26.855,29.297,27.832,30.273,1.953,0
1539618258.712,31.250,21.484,20.996,36.133,34.668,0
1539618258.716,35.156,27.832,34.180,24.414,45.410,0
1539618258.719,29.785,41.504,49.316,25.391,47.852,0
1539618258.723,25.879,38.086,43.945,30.273,70.312,0
1539618258.727,35.156,38.086,44.922,31.738,81.055,0
1539618258.731,41.016,40.039,50.293,32.715,26.367,0
1539618258.735,33.203,36.133,42.969,26.855,7.812,0
1539618258.739,27.344,33.691,39.551,29.297,30.762,0
1539618258.743,33.691,32.715,36.621,29.785,12.695,0
1539618258.747,36.133,26.855,33.691,29.785,29.297,0
1539618258.751,32.227,29.297,33.203,30.273,76.660,0
1539618258.755,24.414,39.551,35.156,24.902,73.242,0
1539618258.758,24.902,38.086,33.691,22.461,28.320,0
1539618258.762,27.344,34.180,24.414,20.020,27.344,0
1539618258.766,29.297,35.645,22.949,23.438,19.043,0
1539618258.770,25.391,34.180,33.203,22.949,35.156,0
1539618258.774,25.391,30.273,39.551,19.531,41.504,0
1539618258.778,31.738,34.180,44.434,23.438,28.809,0
1539618258.782,26.855,37.109,34.668,23.926,-12.695,0
1539618258.786,23.438,28.320,26.367,20.996,-17.578,0
1539618258.790,25.879,28.320,36.621,18.555,-0.488,0
1539618258.794,20.996,36.621,31.250,13.672,-11.719,0
1539618258.798,16.602,36.621,21.973,10.254,42.480,0
1539618258.801,23.438,32.227,29.785,15.137,62.988,0
1539618258.805,24.902,36.133,26.855,23.438,32.715,0
1539618258.809,16.602,32.227,24.902,25.391,60.547,0
1539618258.813,21.973,27.344,38.086,27.344,88.379,0
1539618258.817,30.762,34.668,44.922,28.320,77.148,0
1539618258.821,34.180,37.598,45.410,26.855,23.926,0
1539618258.825,27.344,41.504,39.551,25.391,2.441,0
1539618258.829,21.973,37.109,31.250,15.625,16.113,0
1539618258.833,23.438,33.691,28.809,8.789,23.438,0
1539618258.837,27.832,31.738,31.250,15.625,41.504,0
1539618258.841,31.250,30.273,31.738,19.531,51.270,0
1539618258.844,24.902,36.621,31.250,21.973,17.578,0
1539618258.848,21.484,32.715,39.062,25.879,19.043,0
1539618258.852,27.344,31.738,46.387,25.391,62.012,0
1539618258.856,28.320,38.086,46.387,24.414,92.285,0
1539618258.860,29.297,39.551,46.387,30.762,4.883,0
1539618258.864,41.016,33.691,38.574,36.621,-18.066,0
1539618258.868,49.316,41.016,36.133,42.969,19.531,0
1539618258.872,50.781,47.852,38.086,47.363,50.781,0
1539618258.876,53.711,37.598,39.551,45.410,62.012,0
1539618258.880,50.293,40.527,38.574,40.039,31.250,0
1539618258.883,42.969,41.016,35.156,46.387,-39.062,0
1539618258.887,42.969,41.992,32.715,50.781,-67.383,0
1539618258.891,43.945,42.969,25.391,47.852,-2.930,0
1539618258.895,41.992,38.086,27.344,45.410,5.859,0
1539618258.899,42.480,43.457,38.086,41.504,8.789,0
1539618258.903,38.086,45.410,47.363,41.016,19.531,0
1539618258.907,29.297,34.180,43.945,33.691,30.273,0
1539618258.911,30.273,33.203,34.668,18.555,47.363,0
1539618258.915,27.344,36.621,29.297,8.789,48.340,0
1539618258.919,24.414,38.086,33.203,10.742,27.832,0
1539618258.923,30.762,38.574,39.551,7.812,30.273,0
1539618258.926,24.414,36.133,38.574,0.488,43.945,0
1539618258.930,13.672,43.457,34.668,1.465,64.941,0
1539618258.934,18.555,47.363,26.855,13.672,74.219,0
1539618258.938,36.621,45.410,37.109,24.902,14.160,0
1539618258.942,41.016,45.410,43.945,24.902,29.297,0
1539618258.946,38.574,50.293,38.086,26.367,75.195,0
1539618258.950,37.109,48.340,38.086,32.715,68.848,0
1539618258.954,37.109,34.180,39.551,36.133,107.910,0
1539618258.958,39.551,39.551,43.945,41.504,102.051,0
1539618258.962,35.645,50.293,45.410,42.969,24.902,0
1539618258.966,42.969,42.969,40.039,40.039,-46.387,0
1539618258.969,45.410,37.598,33.691,44.922,-23.438,0
1539618258.973,36.621,40.527,38.574,41.504,2.930,0
1539618258.977,36.621,45.410,47.852,43.457,27.832,0
1539618258.981,36.133,44.434,39.551,47.363,33.691,0
1539618258.985,29.785,40.527,26.855,25.879,-6.348,0
1539618258.989,27.344,42.480,32.715,19.043,85.449,0
1539618258.993,29.297,51.758,32.227,25.879,76.172,0
1539618258.997,26.855,52.246,32.227,26.855,-13.672,0
1539618259.001,23.926,45.898,38.086,12.207,-25.391,0
1539618259.005,21.973,44.434,38.574,7.812,-15.137,0
1539618259.008,23.438,46.875,39.062,11.719,-0.488,0
1539618259.012,27.832,43.945,35.156,2.930,33.691,0
1539618259.016,21.484,44.434,33.203,0.977,48.340,0
1539618259.020,15.625,46.875,27.344,3.906,45.898,0
1539618259.024,18.066,38.574,26.855,8.301,33.203,0
1539618259.028,21.973,42.480,32.715,8.789,63.477,0
1539618259.032,24.902,56.152,29.785,4.883,76.172,0
1539618259.036,25.391,58.105,31.250,11.719,23.438,0
1539618259.040,10.742,43.945,35.156,10.742,39.062,0
1539618259.044,6.836,28.809,34.668,1.953,39.551,0
1539618259.048,12.695,30.273,33.203,7.324,14.648,0
1539618259.051,16.602,40.039,30.762,13.184,-5.371,0
1539618259.055,20.996,37.109,30.762,14.160,13.184,0
1539618259.059,29.297,40.527,33.203,24.414,5.371,0
1539618259.063,31.738,37.598,39.551,18.066,-48.340,0
1539618259.067,14.648,38.574,30.273,13.672,-7.324,0
1539618259.071,18.066,50.293,29.785,22.949,7.812,0
1539618259.075,26.367,43.457,38.086,28.320,9.766,0
1539618259.079,27.344,38.086,29.785,23.926,36.133,0
1539618259.083,22.461,37.598,29.297,18.555,67.871,0
1539618259.087,15.137,37.109,41.992,22.949,83.496,0
1539618259.091,18.066,37.109,39.551,29.785,49.316,0
1539618259.094,31.738,39.551,32.715,30.762,38.086,0
1539618259.098,34.668,40.039,34.180,29.785,56.152,0
1539618259.102,26.367,38.086,32.715,30.273,52.246,0
1539618259.106,33.203,39.551,35.645,23.438,49.316,0
1539618259.110,32.227,41.992,37.109,25.879,84.473,0
1539618259.114,26.367,34.668,32.715,21.484,64.941,0
1539618259.118,24.902,34.180,25.879,12.207,-5.859,0
1539618259.122,19.531,39.551,24.414,6.348,-15.137,0
1539618259.126,23.926,44.922,29.785,1.465,74.219,0
1539618259.130,32.715,44.922,31.738,7.324,61.035,0
1539618259.133,34.180,40.527,30.762,12.695,20.996,0
1539618259.137,30.273,42.480,24.414,14.648,62.500,0
1539618259.141,20.508,36.621,22.949,17.090,64.941,0
1539618259.145,22.949,27.832,29.785,18.555,49.805,0
1539618259.149,30.762,29.785,40.527,23.438,57.617,0
1539618259.153,32.715,39.551,41.992,28.809,59.570,0
1539618259.157,27.832,46.387,30.762,25.391,-8.789,0
1539618259.161,26.855,42.969,28.320,20.508,-42.969,0
1539618259.165,24.902,35.645,31.738,20.020,-7.324,0
1539618259.169,32.715,38.574,28.809,24.902,14.648,0
1539618259.173,36.621,41.992,28.320,34.180,-3.418,0
1539618259.176,31.250,34.668,29.297,33.691,51.270,0
1539618259.180,35.645,27.832,34.180,28.809,51.270,0
1539618259.184,37.598,35.156,40.039,30.273,15.137,0
1539618259.188,34.668,43.945,44.922,41.504,40.527,0
1539618259.192,25.879,34.180,41.016,36.621,17.090,0
1539618259.196,21.973,31.250,40.039,30.273,24.414,0
1539618259.200,24.414,42.480,30.273,34.180,35.645,0
1539618259.204,30.273,44.922,30.273,38.574,41.016,0
1539618259.208,35.645,37.109,45.898,38.574,33.203,0
1539618259.212,37.109,37.109,37.109,32.227,17.578,0
1539618259.216,34.180,34.668,23.438,34.180,60.547,0
1539618259.219,39.062,37.598,36.133,35.645,42.480,0
1539618259.223,48.340,49.805,53.223,33.691,12.207,0
1539618259.227,38.086,46.875,41.992,25.879,35.645,0
1539618259.231,35.156,46.875,36.133,19.531,59.570,0
1539618259.235,37.598,44.434,38.086,18.066,46.387,0
1539618259.239,34.180,42.969,31.738,18.555,-6.836,0
1539618259.243,29.297,42.480,33.691,13.184,-3.418,0
1539618259.247,20.996,41.504,35.645,16.113,43.945,0
1539618259.251,25.879,36.133,28.809,20.020,42.969,0
1539618259.255,36.133,34.668,29.297,34.180,15.625,0
1539618259.258,33.203,39.062,38.574,44.434,44.922,0
1539618259.262,33.203,35.645,40.527,35.156,34.668,0
1539618259.266,32.227,37.598,36.621,33.203,3.906,0
1539618259.270,41.016,40.039,37.109,41.016,41.992,0
1539618259.274,39.551,36.133,41.016,44.922,61.035,0
1539618259.278,21.484,34.668,45.898,43.945,88.867,0
1539618259.282,24.414,35.156,41.992,34.180,62.988,0
1539618259.286,21.973,34.180,37.109,25.879,33.203,0
1539618259.290,15.625,25.879,22.949,31.250,44.434,0
1539618259.294,21.973,22.461,22.461,31.738,40.527,0
1539618259.298,16.602,29.785,35.156,26.855,39.551,0
1539618259.301,13.672,41.016,41.016,26.367,39.551,0
1539618259.305,26.855,45.410,48.340,33.691,17.090,0
1539618259.309,19.043,35.645,35.645,26.367,-12.207,0
1539618259.313,7.812,33.691,29.297,20.508,17.578,0
1539618259.317,22.949,36.133,33.691,21.484,40.039,0
1539618259.321,24.414,35.645,32.227,9.766,23.926,0
1539618259.325,20.508,32.227,30.273,1.465,-1.465,0
1539618259.329,31.738,29.297,20.020,4.395,46.387,0
1539618259.333,33.203,35.156,26.367,13.184,31.738,0
1539618259.337,33.203,41.992,39.062,8.301,1.465,0
1539618259.341,45.410,42.969,37.109,13.184,35.156,0
1539618259.344,45.410,42.480,28.320,14.648,36.133,0
1539618259.348,35.156,45.410,33.203,14.648,116.699,0
1539618259.352,41.504,49.316,42.969,24.902,99.609,0
1539618259.356,43.457,48.340,43.945,33.203,12.207,0
1539618259.360,43.945,40.527,40.527,38.086,44.922,0
1539618259.364,44.434,29.785,33.691,40.527,51.270,0
1539618259.368,36.133,35.156,30.762,40.527,-17.578,0
1539618259.372,36.133,34.180,39.551,37.109,39.062,0
1539618259.376,34.668,24.414,48.828,38.086,76.172,0
1539618259.380,36.621,34.668,45.898,42.969,46.387,0
1539618259.383,47.852,40.527,49.316,56.641,51.270,0
1539618259.387,40.039,35.156,44.922,53.223,37.598,0
1539618259.391,35.645,36.621,28.809,36.133,73.730,0
1539618259.395,41.016,37.598,27.344,38.086,77.637,0
1539618259.399,28.320,26.367,27.344,42.480,-14.160,1
1539618259.403,29.297,31.738,37.598,40.039,10.742,0
1539618259.407,30.762,43.945,43.945,38.574,30.273,0
1539618259.411,28.320,43.457,39.062,37.598,50.293,0
1539618259.415,32.227,42.969,37.598,38.574,57.129,0
1539618259.419,31.738,31.738,37.109,35.645,-2.930,0
1539618259.423,37.109,34.180,39.062,32.227,-6.836,0
1539618259.426,39.551,43.457,40.039,31.250,-25.391,0
1539618259.430,31.250,40.039,37.598,18.066,-5.371,0
1539618259.434,28.320,36.621,37.109,1.953,62.988,0
1539618259.438,30.762,30.762,40.527,1.465,56.641,0
1539618259.442,30.762,41.504,28.809,8.301,22.461,0
1539618259.446,35.645,40.039,20.508,10.742,16.602,0
1539618259.450,37.109,36.133,37.598,15.625,-6.348,0
1539618259.454,35.645,39.551,40.527,21.973,-31.738,0
1539618259.458,41.016,35.645,39.062,32.715,2.441,0
1539618259.462,59.082,36.621,36.133,49.805,41.016,0
1539618259.466,56.641,39.551,32.227,45.410,52.246,0
1539618259.469,35.645,46.387,40.039,39.062,32.715,0
1539618259.473,29.297,47.363,38.086,38.086,1.465,0
1539618259.477,27.344,38.574,37.598,36.133,12.695,0
1539618259.481,25.391,37.109,42.480,35.645,19.043,0
1539618259.485,33.203,41.504,42.969,32.715,-8.789,0
1539618259.489,28.809,34.180,39.551,34.668,45.410,0
1539618259.493,18.555,33.691,34.180,30.762,97.168,0
1539618259.497,24.414,35.645,35.156,21.484,118.652,0
1539618259.501,25.879,32.715,32.227,22.461,102.539,0
1539618259.505,26.855,32.227,31.250,25.391,43.457,0
1539618259.508,35.645,33.203,39.551,26.855,11.230,0
1539618259.512,37.598,38.086,39.062,25.391,9.277,0
1539618259.516,34.668,39.062,32.227,22.949,14.648,0
1539618259.520,36.133,37.598,23.438,27.832,45.410,0
1539618259.524,37.109,34.668,19.043,31.738,47.852,0
1539618259.528,28.809,33.203,20.020,25.391,49.805,0
1539618259.532,21.484,36.133,29.297,27.832,92.773,0
1539618259.536,20.996,29.785,33.203,26.855,25.879,0
1539618259.540,20.996,29.785,33.203,18.066,-1.953,0
1539618259.544,18.066,34.180,36.621,27.832,40.527,0
1539618259.548,16.602,31.250,36.621,35.645,-7.324,0
1539618259.551,16.113,35.156,39.551,29.297,-6.348,0
1539618259.555,21.973,38.086,39.551,33.691,25.391,0
1539618259.559,20.020,31.250,29.785,31.738,7.324,0
1539618259.563,10.254,22.949,37.109,24.902,12.207,0
1539618259.567,16.602,21.973,51.270,33.203,51.270,0
1539618259.571,24.902,29.785,48.340,33.203,58.594,0
1539618259.575,18.555,34.668,33.203,20.508,59.570,0
1539618259.579,34.668,34.668,27.344,20.508,8.301,0
1539618259.583,42.480,35.156,35.645,28.809,-5.371,0
1539618259.587,35.156,35.645,39.062,34.668,33.203,0
1539618259.591,42.969,42.969,32.715,32.227,38.574,0
1539618259.594,45.898,47.852,30.762,39.062,70.312,0
1539618259.598,57.129,39.062,32.715,46.387,-14.648,0
1539618259.602,58.594,40.039,33.203,35.645,-3.906,0
1539618259.606,42.480,41.992,29.297,23.926,35.645,0
1539618259.610,43.457,44.922,30.762,30.762,18.555,0
1539618259.614,44.922,46.387,36.621,37.598,35.645,0
1539618259.618,35.156,33.691,30.273,30.762,20.508,0
1539618259.622,31.738,35.645,34.180,29.297,11.230,0
1539618259.626,32.715,48.340,40.527,29.297,31.738,0
1539618259.630,32.227,43.457,35.156,30.273,53.223,0
1539618259.633,30.762,30.762,31.250,33.691,22.949,0
1539618259.637,25.391,37.109,33.691,35.156,51.270,0
1539618259.641,18.066,41.504,41.016,32.715,57.129,0
1539618259.645,19.043,39.551,42.480,29.297,20.508,0
1539618259.649,27.832,39.062,40.039,26.855,20.020,0
1539618259.653,24.414,34.668,40.527,27.344,59.570,0
1539618259.657,23.438,34.668,40.527,29.785,64.941,0
1539618259.661,35.156,29.785,39.062,28.320,35.645,0
1539618259.665,37.598,39.062,41.992,38.574,56.152,0
1539618259.669,27.344,40.039,34.180,39.062,59.082,0
1539618259.673,20.508,29.297,30.273,26.367,42.480,0
1539618259.676,27.344,34.180,38.086,25.391,62.012,0
1539618259.680,27.344,41.016,29.297,27.344,51.758,0
1539618259.684,17.090,43.945,27.344,33.691,90.332,0
1539618259.688,17.090,39.062,41.016,33.691,60.547,0
1539618259.692,26.855,35.645,42.480,40.527,6.348,0
1539618259.696,31.738,38.086,37.109,40.039,41.504,0
1539618259.700,36.133,33.203,41.992,29.297,35.645,0
1539618259.704,42.480,29.297,45.898,35.645,0.977,0
1539618259.708,42.480,34.668,35.645,36.621,6.836,0
1539618259.712,35.645,43.945,34.668,31.738,-13.184,0
1539618259.716,38.086,48.340,41.504,34.668,-21.973,0
1539618259.719,43.457,41.992,39.551,37.109,41.992,0
1539618259.723,34.180,34.668,32.715,32.227,53.223,0
1539618259.727,34.668,35.156,29.785,34.180,14.648,0
1539618259.731,34.180,39.062,31.250,30.762,56.152,0
1539618259.735,27.344,37.598,31.250,28.809,121.094,0
1539618259.739,35.156,43.945,35.645,40.527,50.781,0
1539618259.743,31.738,34.668,43.457,34.668,11.230,0
1539618259.747,22.949,21.484,43.945,21.484,39.062,0
1539618259.751,18.555,30.273,40.039,24.902,74.707,0
1539618259.755,14.648,35.645,35.156,22.949,55.176,0
1539618259.758,18.555,40.527,32.227,22.461,49.805,0
1539618259.762,23.926,43.457,36.133,23.926,111.816,0
1539618259.766,24.902,39.062,30.273,15.625,96.191,0
1539618259.770,26.855,42.480,24.414,17.578,-0.977,0
1539618259.774,30.273,41.504,37.598,26.855,-7.812,0
1539618259.778,38.574,27.832,32.227,26.855,8.789,0
1539618259.782,47.363,35.156,34.668,34.180,17.578,0
1539618259.786,43.945,49.805,47.852,38.086,42.480,0
1539618259.790,44.922,39.551,32.227,33.691,-18.555,0
1539618259.794,43.945,40.039,25.879,29.785,13.184,0
1539618259.798,42.969,46.875,37.598,29.785,87.402,0
1539618259.801,48.340,45.898,45.410,32.227,54.688,0
1539618259.805,42.969,40.039,45.410,37.598,33.203,0
1539618259.809,32.227,28.809,41.504,30.273,11.230,0
1539618259.813,25.879,34.668,36.621,19.043,-9.277,0
1539618259.817,25.391,37.109,29.785,23.926,-57.129,0
1539618259.821,22.461,33.203,34.180,26.855,-8.789,0
1539618259.825,22.949,28.320,42.480,27.344,28.809,0
1539618259.829,21.973,30.273,41.504,29.297,2.930,0
1539618259.833,21.484,40.527,36.621,25.391,20.996,0
1539618259.837,31.250,38.086,37.598,29.297,50.781,0
1539618259.841,32.227,30.762,41.992,28.320,98.633,0
1539618259.844,22.949,29.297,37.598,23.926,124.512,0
1539618259.848,29.297,38.086,33.691,28.809,99.121,0
1539618259.852,35.645,41.992,33.203,29.785,74.219,0
1539618259.856,33.203,32.715,21.484,29.785,12.695,0
1539618259.860,34.180,37.109,22.949,26.855,0.488,0
1539618259.864,37.598,42.969,42.480,20.508,21.973,0
1539618259.868,38.574,35.645,45.898,21.484,0.977,0
1539618259.872,38.574,29.297,31.738,26.367,-31.250,0
1539618259.876,36.133,28.809,24.414,26.367,-37.598,0
1539618259.880,29.297,36.133,29.785,26.855,62.500,0
1539618259.883,30.762,42.480,31.250,29.297,111.328,0
1539618259.887,39.551,40.039,32.715,34.180,59.082,0
1539618259.891,36.621,40.527,40.039,37.598,28.809,0
1539618259.895,31.738,34.668,44.922,37.598,46.387,0
1539618259.899,24.902,30.273,35.645,32.227,88.379,0
1539618259.903,26.855,36.621,42.969,29.785,27.832,0
1539618259.907,28.809,23.926,41.016,32.227,-29.297,0
1539618259.911,25.391,29.297,30.273,31.250,16.113,0
1539618259.915,16.113,41.992,34.180,25.391,8.789,0
1539618259.919,12.695,37.109,33.203,22.949,-2.930,0
1539618259.923,20.996,37.109,27.832,21.973,2.930,0
1539618259.926,31.250,38.086,36.133,32.715,34.668,0
1539618259.930,31.250,37.109,49.805,29.297,46.875,0
1539618259.934,22.949,31.250,45.410,20.508,-10.742,0
1539618259.938,29.785,28.809,42.969,23.926,-14.160,0
1539618259.942,31.738,29.785,36.133,25.391,24.414,0
1539618259.946,31.250,31.250,36.621,26.855,25.391,0
1539618259.950,34.180,41.992,47.363,34.668,54.199,0
1539618259.954,24.902,44.434,31.738,32.227,37.598,0
1539618259.958,30.273,36.621,23.926,29.785,20.508,0
1539618259.962,37.598,41.016,36.133,33.691,-2.441,0
1539618259.966,29.297,42.969,39.551,30.273,-18.555,0
1539618259.969,28.809,36.621,36.133,30.273,66.406,0
1539618259.973,34.180,34.668,38.574,33.203,75.684,0
1539618259.977,34.180,33.203,43.945,26.855,37.109,0
1539618259.981,30.762,24.902,39.062,20.996,67.871,0
1539618259.985,39.062,27.832,36.621,24.902,31.738,0
1539618259.989,42.480,41.016,40.039,18.066,-9.277,0
1539618259.993,32.227,49.805,37.598,11.230,9.277,0
1539618259.997,31.738,46.875,34.180,23.438,47.852,0
1539618260.001,36.133,40.527,33.691,28.320,56.152,0
1539618260.005,35.156,35.156,34.180,20.508,60.059,0
1539618260.008,37.598,32.227,30.762,25.391,72.266,0
1539618260.012,37.109,39.551,26.855,27.832,58.105,0
1539618260.016,36.621,38.574,28.809,29.785,70.312,0
1539618260.020,36.621,33.203,33.691,31.738,57.617,0
1539618260.024,29.785,35.156,37.598,27.832,47.363,0
1539618260.028,36.133,43.945,50.293,34.180,47.852,0
1539618260.032,39.551,44.922,55.176,32.715,18.555,0
1539618260.036,24.414,28.320,41.504,19.531,38.574,0
1539618260.040,18.066,30.762,30.762,19.531,34.180,0
1539618260.044,17.578,39.551,32.715,23.438,-2.930,0
1539618260.048,26.855,34.180,33.691,23.438,6.348,0
1539618260.051,35.645,36.621,26.855,26.367,-8.789,0
1539618260.055,31.250,43.945,27.344,26.367,25.879,0
1539618260.059,29.297,37.109,42.969,24.414,86.426,0
1539618260.063,37.598,34.668,39.062,24.902,75.195,0
1539618260.067,44.434,36.133,30.762,32.227,12.207,0
1539618260.071,35.645,39.062,34.180,24.414,49.316,0
1539618260.075,34.668,34.668,35.645,17.090,51.758,0
1539618260.079,35.156,34.668,37.109,23.438,38.086,0
1539618260.083,29.785,41.016,34.668,23.438,26.367,0
1539618260.087,24.414,37.598,36.621,24.902,-39.062,0
1539618260.091,23.926,38.086,34.668,23.438,-38.086,0
1539618260.094,28.809,41.504,35.156,17.578,-21.484,0
1539618260.098,26.855,35.156,37.598,20.020,-1.465,0
1539618260.102,32.227,40.527,37.598,35.156,58.594,0
1539618260.106,37.598,46.875,40.039,37.598,34.180,0
1539618260.110,32.227,42.969,37.598,31.738,8.301,0
1539618260.114,32.227,42.480,43.945,37.109,62.012,0
1539618260.118,28.809,36.133,45.410,33.203,-3.418,0
1539618260.122,24.902,37.109,29.297,23.438,-14.160,0
1539618260.126,33.203,37.598,23.926,23.926,33.203,0
1539618260.130,29.297,33.203,24.414,23.926,25.879,0
1539618260.133,30.273,42.969,30.273,20.508,41.016,0
1539618260.137,34.180,41.016,45.898,22.461,10.254,0
1539618260.141,29.297,39.062,48.340,23.926,-3.906,0
1539618260.145,26.855,41.016,38.574,20.996,27.344,0
1539618260.149,19.531,34.668,34.180,15.137,60.547,0
1539618260.153,29.785,31.738,39.551,19.531,50.781,0
1539618260.157,34.180,36.621,37.109,24.902,-5.371,0
1539618260.161,34.180,37.109,28.809,28.809,-44.922,0
1539618260.165,33.691,32.227,25.879,25.879,-21.484,0
1539618260.169,33.203,41.016,31.250,29.785,18.066,0
1539618260.173,38.086,42.480,41.016,27.344,58.594,0
1539618260.176,43.457,31.250,41.016,21.484,30.273,0
1539618260.180,30.273,41.016,37.109,21.484,12.695,0
1539618260.184,24.414,47.363,31.250,20.508,27.832,0
1539618260.188,27.344,34.668,33.203,20.996,22.461,0
1539618260.192,28.320,30.762,47.852,26.855,44.434,0
1539618260.196,30.273,38.574,39.551,23.438,82.520,0
1539618260.200,31.250,43.457,27.832,23.438,48.340,0
1539618260.204,36.133,42.480,39.062,24.902,-4.883,0
1539618260.208,37.109,41.992,44.434,22.461,15.625,0
1539618260.212,31.738,33.203,31.250,26.855,51.758,0
1539618260.216,33.203,28.809,34.180,31.738,31.738,0
1539618260.219,41.016,30.762,47.363,41.504,44.434,0
1539618260.223,41.504,37.109,51.270,46.387,2.930,0
1539618260.227,38.086,38.574,40.039,38.574,-53.223,0
1539618260.231,36.621,38.574,24.902,37.109,-6.348,0
1539618260.235,29.785,42.480,33.203,37.598,70.801,0
1539618260.239,28.809,36.621,40.039,35.156,52.246,0
1539618260.243,40.039,42.480,38.574,36.621,-24.414,0
1539618260.247,41.016,47.852,37.598,25.879,22.461,0
1539618260.251,39.551,44.922,34.180,19.043,73.242,0
1539618260.255,34.668,41.992,27.344,29.297,0.977,0
1539618260.258,30.762,36.621,39.062,38.086,22.461,0
1539618260.262,35.156,31.250,53.223,37.598,76.172,0
1539618260.266,31.250,39.551,41.016,31.250,48.340,0
1539618260.270,24.414,30.762,40.039,31.738,8.301,0
1539618260.274,20.996,24.414,42.969,30.762,5.859,0
1539618260.278,17.090,40.527,36.621,31.250,35.645,0
1539618260.282,22.949,43.457,40.527,31.250,24.902,0
1539618260.286,27.832,38.574,38.574,27.344,2.930,0
1539618260.290,15.625,34.180,37.109,24.414,-39.062,0
1539618260.294,17.578,39.551,39.062,20.508,-29.297,0
1539618260.298,29.297,45.410,35.645,29.297,24.902,0
1539618260.301,32.715,24.414,43.945,32.715,59.082,0
1539618260.305,28.320,10.742,45.898,23.438,29.297,0
1539618260.309,25.391,32.227,35.645,20.020,-23.438,0
1539618260.313,27.832,45.410,35.156,20.020,-28.809,0
1539618260.317,30.273,43.457,28.809,20.996,32.715,0
1539618260.321,35.156,42.480,17.090,23.926,68.359,0
1539618260.325,31.738,42.480,28.320,24.902,35.156,0
1539618260.329,26.855,39.551,35.645,26.855,55.176,0
1539618260.333,27.832,32.715,32.227,31.738,2.441,0
1539618260.337,34.668,40.039,36.133,35.645,3.418,0
1539618260.341,35.645,53.711,31.738,33.203,19.043,0
1539618260.344,30.762,42.480,37.109,31.738,-20.508,0
1539618260.348,28.809,34.180,33.203,28.320,40.527,0
1539618260.352,22.949,35.156,24.414,22.949,61.523,0
1539618260.356,23.438,32.227,34.180,22.461,45.410,0
1539618260.360,20.996,30.273,38.574,32.715,61.035,0
1539618260.364,20.020,31.738,34.668,31.738,38.086,0
1539618260.368,24.902,39.062,34.180,22.461,23.438,0
1539618260.372,29.785,49.316,36.133,27.832,20.996,0
1539618260.376,36.133,46.387,34.180,32.227,48.828,0
1539618260.380,40.039,41.504,41.992,37.109,86.914,0
1539618260.383,32.715,39.551,41.992,26.855,43.457,0
1539618260.387,27.832,34.668,33.691,21.484,-17.578,0
1539618260.391,31.250,32.715,31.738,27.832,-7.324,0
1539618260.395,34.180,33.203,28.320,27.832,59.082,0
1539618260.399,31.250,34.668,29.785,33.203,46.387,0
1539618260.403,34.180,34.668,40.039,33.691,7.812,0
1539618260.407,41.016,39.062,43.945,31.738,69.336,0
1539618260.411,43.945,42.969,42.480,29.297,52.734,0
1539618260.415,35.645,45.410,39.062,22.949,-4.883,0
1539618260.419,33.203,42.480,38.574,22.949,50.293,0
1539618260.423,41.992,44.922,43.945,34.180,118.652,0
1539618260.426,43.457,39.062,42.969,43.457,106.934,0
1539618260.430,35.645,27.344,39.062,30.273,55.176,0
1539618260.434,35.156,25.391,39.062,28.809,58.105,0
1539618260.438,41.016,34.180,31.250,35.156,28.320,0
1539618260.442,33.203,38.574,30.762,35.156,59.082,0
1539618260.446,31.738,32.715,33.203,34.180,118.652,0
1539618260.450,36.621,37.109,31.738,30.762,61.035,0
1539618260.454,31.250,39.551,36.133,29.297,44.434,0
1539618260.458,29.785,36.621,37.109,30.762,88.379,0
1539618260.462,28.809,36.133,38.086,27.344,62.988,0
1539618260.466,26.367,37.109,32.715,28.320,61.035,0
1539618260.469,34.668,36.133,37.109,30.273,35.156,0
1539618260.473,31.738,31.738,42.480,27.832,9.766,0
1539618260.477,19.531,34.668,30.273,28.809,38.086,0
1539618260.481,24.902,41.504,28.809,29.785,33.203,0
1539618260.485,32.227,34.180,40.039,38.086,6.348,0
1539618260.489,25.879,30.273,41.504,33.203,-29.297,0
1539618260.493,28.320,39.062,34.668,20.508,20.996,0
1539618260.497,36.133,34.180,35.645,26.855,50.781,0
1539618260.501,41.504,33.203,34.180,35.645,36.621,0
1539618260.505,38.086,41.016,27.832,39.062,7.324,0
1539618260.508,31.738,37.598,34.668,39.062,53.223,0
1539618260.512,38.086,36.621,43.945,42.480,46.387,0
1539618260.516,43.945,35.156,43.457,41.504,-13.672,0
1539618260.520,37.109,38.574,37.109,33.203,18.555,0
1539618260.524,33.203,39.062,32.227,32.715,18.555,0
1539618260.528,41.992,39.062,35.645,39.062,26.367,0
1539618260.532,52.246,43.945,34.180,46.875,33.691,0
1539618260.536,44.922,43.945,36.621,41.504,35.645,0
1539618260.540,33.203,34.668,46.387,34.180,40.527,0
1539618260.544,32.715,27.344,46.387,35.645,26.367,0
1539618260.548,32.715,30.762,40.039,34.668,47.363,0
1539618260.551,44.434,22.949,39.551,39.551,-5.371,0
1539618260.555,41.504,24.902,36.621,42.480,21.973,0
1539618260.559,30.762,41.992,36.133,38.086,13.672,0
1539618260.563,31.250,43.457,41.504,25.391,-43.945,0
1539618260.567,34.180,41.992,38.574,19.531,2.441,0
1539618260.571,39.551,43.945,39.062,29.297,0.488,0
1539618260.575,48.828,46.387,39.551,32.715,-3.906,0
1539618260.579,46.387,37.598,29.785,33.691,-42.969,0
1539618260.583,38.086,28.320,37.598,35.156,-28.320,0
1539618260.587,37.598,31.250,36.133,29.785,50.781,0
1539618260.591,36.133,35.156,25.879,28.809,63.477,0
1539618260.594,42.969,39.551,37.109,37.598,55.664,0
1539618260.598,41.504,42.480,41.016,44.434,39.062,0
1539618260.602,38.574,35.645,41.016,47.852,37.598,0
1539618260.606,39.062,39.551,41.992,50.293,78.613,0
1539618260.610,41.992,45.410,30.762,48.340,45.410,0
1539618260.614,51.270,36.621,28.320,47.852,23.438,0
1539618260.618,40.527,39.062,40.039,43.945,62.500,0
1539618260.622,38.574,48.340,41.016,41.016,38.574,0
1539618260.626,43.457,49.805,35.645,41.016,7.812,0
1539618260.630,36.621,41.504,36.621,32.227,73.242,0
1539618260.633,36.621,26.855,39.062,31.738,45.410,0
1539618260.637,40.039,27.344,38.574,37.109,22.949,0
1539618260.641,35.645,35.156,44.434,34.180,37.109,0
1539618260.645,34.180,41.016,50.781,33.691,29.785,0
1539618260.649,37.598,41.016,49.805,26.367,24.902,0
1539618260.653,40.527,44.434,36.133,22.949,-12.207,0
1539618260.657,38.086,44.922,19.043,30.762,23.926,0
1539618260.661,41.992,40.039,32.227,37.598,52.246,0
1539618260.665,39.062,36.621,40.527,34.180,20.020,0
1539618260.669,34.180,30.273,34.668,30.762,1.953,0
1539618260.673,40.039,25.879,35.156,34.668,-4.395,0
1539618260.676,35.156,35.645,35.645,33.203,32.227,0
1539618260.680,31.738,45.410,34.180,35.156,28.320,0
1539618260.684,38.574,44.922,36.133,37.598,32.227,0
1539618260.688,52.246,41.992,42.969,41.016,54.199,0
1539618260.692,52.246,41.016,38.086,41.504,-7.812,0
1539618260.696,39.062,40.039,31.250,32.227,25.879,0
1539618260.700,25.879,41.016,30.762,25.879,46.387,0
1539618260.704,29.297,41.504,28.809,28.809,24.902,0
1539618260.708,34.180,33.203,32.715,39.062,-12.695,0
1539618260.712,25.391,32.715,36.133,33.203,2.441,0
1539618260.716,25.391,41.016,35.156,24.902,32.715,1
1539618260.719,24.902,37.598,37.109,27.832,39.551,0
1539618260.723,24.414,40.039,35.645,30.273,53.711,0
1539618260.727,30.762,44.434,36.621,30.273,30.273,0
1539618260.731,23.438,33.691,35.156,25.391,17.578,0
1539618260.735,24.414,32.715,27.344,26.367,0.488,0
1539618260.739,25.879,33.203,31.738,19.043,45.410,0
1539618260.743,21.973,32.715,42.969,16.602,60.547,0
1539618260.747,20.508,44.434,33.203,19.043,22.949,0
1539618260.751,18.555,41.504,26.855,16.602,4.395,0
1539618260.755,20.020,34.668,34.668,16.602,37.109,0
1539618260.758,18.066,36.133,29.785,20.508,40.039,0
1539618260.762,25.879,42.480,23.438,31.738,16.602,0
1539618260.766,36.133,30.273,30.273,41.992,65.918,0
1539618260.770,32.715,21.484,36.133,41.016,54.199,0
1539618260.774,39.062,31.250,33.691,42.480,23.438,0
1539618260.778,34.180,32.227,34.668,42.969,0.488,0
1539618260.782,23.438,30.762,39.551,38.574,-1.465,0
1539618260.786,26.367,35.645,38.574,39.551,-4.395,0
1539618260.790,28.320,39.551,34.668,35.156,44.434,0
1539618260.794,39.062,39.551,35.645,32.227,67.871,0
1539618260.798,42.969,41.504,36.621,34.668,16.602,0
1539618260.801,32.715,32.227,30.273,26.855,13.184,0
1539618260.805,30.273,29.785,30.273,20.996,-4.395,0
1539618260.809,33.691,38.086,31.250,24.902,-41.016,0
1539618260.813,36.133,31.250,35.156,26.367,-73.242,0
1539618260.817,36.621,27.832,39.062,29.785,7.324,0
1539618260.821,32.227,35.645,37.109,29.785,62.012,0
1539618260.825,30.273,38.574,36.133,26.855,47.852,0
1539618260.829,30.273,41.504,31.250,29.297,30.273,0
1539618260.833,24.414,34.180,32.715,32.715,12.207,0
1539618260.837,31.250,32.227,44.922,32.715,15.625,0
1539618260.841,37.598,32.715,43.945,35.645,11.719,0
1539618260.844,38.086,34.180,41.016,41.992,38.574,0
1539618260.848,36.621,36.133,42.480,39.062,83.496,0
1539618260.852,37.109,34.180,45.410,41.504,79.102,0
1539618260.856,47.363,39.551,36.621,48.340,44.434,0
1539618260.860,56.641,38.086,34.180,47.852,38.086,0
1539618260.864,42.969,26.855,37.109,41.992,13.672,0
1539618260.868,27.832,22.461,33.203,35.645,28.320,0
1539618260.872,36.621,33.203,32.715,33.691,92.285,0
1539618260.876,39.551,29.785,31.250,34.668,114.258,0
1539618260.880,32.227,25.879,40.527,37.598,52.246,0
1539618260.883,34.180,31.738,43.945,42.969,51.758,0
1539618260.887,41.504,32.227,41.504,41.992,40.527,0
1539618260.891,34.180,27.344,40.039,37.598,63.477,0
1539618260.895,30.273,23.438,36.133,42.480,87.891,0
1539618260.899,41.504,28.809,35.156,41.992,55.176,0
1539618260.903,47.852,33.691,39.551,35.645,62.988,0
1539618260.907,39.551,26.855,37.598,29.785,41.016,0
1539618260.911,37.598,31.738,30.762,31.250,38.574,0
1539618260.915,44.434,30.273,31.250,33.203,20.508,0
1539618260.919,44.434,22.949,35.156,32.227,0.000,0
1539618260.923,40.039,30.762,30.273,26.855,31.738,0
1539618260.926,40.527,34.180,31.738,20.996,48.828,0
1539618260.930,44.434,27.344,38.574,29.297,4.883,0
1539618260.934,38.574,22.949,34.180,27.832,31.738,0
1539618260.938,33.203,33.203,33.203,25.391,44.922,0
1539618260.942,48.340,50.293,40.527,44.922,81.055,0
1539618260.946,53.711,41.016,34.668,47.363,110.840,0
1539618260.950,36.621,25.879,23.438,35.156,27.832,0
1539618260.954,38.086,27.832,30.273,37.598,-10.254,0
1539618260.958,38.086,31.738,31.738,34.668,42.969,0
1539618260.962,32.715,33.691,27.832,31.250,114.746,0
1539618260.966,34.180,14.160,36.133,35.645,69.336,0
1539618260.969,35.645,13.672,40.527,40.039,19.531,0
1539618260.973,35.645,32.715,36.133,42.480,3.418,0
1539618260.977,38.574,35.156,37.598,39.551,18.066,0
1539618260.981,40.527,38.574,38.574,37.109,3.906,0
1539618260.985,43.457,41.992,40.039,42.969,-45.410,0
1539618260.989,49.316,38.574,38.086,40.527,-11.719,0
1539618260.993,50.293,38.574,35.156,41.992,53.223,0
1539618260.997,51.758,43.457,40.039,42.969,91.797,0
1539618261.001,44.434,32.227,37.109,32.715,78.613,0
1539618261.005,44.434,31.250,31.250,39.551,44.434,0
1539618261.008,43.945,34.180,38.574,37.598,5.859,0
1539618261.012,35.156,29.785,40.527,29.297,9.277,0
1539618261.016,34.668,36.133,33.691,36.621,50.781,0
1539618261.020,38.086,40.527,34.180,38.574,65.918,0
1539618261.024,41.504,37.109,36.621,39.062,79.590,0
1539618261.028,41.016,35.156,37.598,41.016,40.527,0
1539618261.032,37.109,41.016,31.250,38.574,-26.855,0
1539618261.036,26.855,38.574,28.809,35.645,25.879,0
1539618261.040,38.574,31.250,38.086,20.996,125.977,0
1539618261.044,46.387,39.062,45.410,18.555,74.219,0
1539618261.048,32.715,45.898,50.781,25.879,26.855,0
1539618261.051,22.949,32.227,38.086,15.625,58.105,0
1539618261.055,19.531,31.738,34.668,11.230,45.898,0
1539618261.059,19.043,33.691,31.738,10.254,20.508,0
1539618261.063,21.484,33.203,20.996,15.625,21.484,0
1539618261.067,22.949,34.668,28.809,17.578,49.805,0
1539618261.071,26.855,34.668,35.156,21.973,19.043,0
1539618261.075,40.039,39.551,29.785,29.297,-31.250,0
1539618261.079,41.992,36.621,25.879,31.250,-0.977,0
1539618261.083,39.551,29.785,33.203,34.180,25.879,0
1539618261.087,41.992,27.344,36.133,36.133,14.648,0
1539618261.091,42.969,31.250,33.691,35.156,2.441,0
1539618261.094,41.992,37.598,33.203,34.180,5.371,0
1539618261.098,32.715,44.434,29.297,29.785,25.879,0
1539618261.102,29.785,49.805,29.297,26.855,32.715,0
1539618261.106,28.320,46.387,33.691,22.949,63.477,0
1539618261.110,29.785,43.457,35.156,25.391,30.273,0
1539618261.114,35.645,41.992,36.133,30.273,15.625,0
1539618261.118,35.156,40.527,37.598,14.160,68.848,0
1539618261.122,29.297,40.039,31.250,6.348,40.527,0
1539618261.126,30.273,34.668,21.484,19.043,60.547,0
1539618261.130,31.250,38.086,24.414,22.461,53.711,0
1539618261.133,30.273,47.363,31.250,19.531,-19.531,0
1539618261.137,34.668,47.852,38.574,23.926,7.324,0
1539618261.141,36.133,37.109,40.527,26.367,40.039,0
1539618261.145,26.367,33.203,37.598,23.438,36.133,0
1539618261.149,26.367,41.016,40.527,22.949,49.805,0
1539618261.153,30.762,38.574,41.016,27.344,34.180,0
1539618261.157,32.715,30.273,38.574,28.809,45.898,0
1539618261.161,29.785,34.180,43.457,23.926,43.945,0
1539618261.165,26.855,39.551,34.668,19.531,47.363,0
1539618261.169,32.227,39.551,29.297,27.832,51.758,0
1539618261.173,32.227,39.551,35.156,25.391,41.504,0
1539618261.176,24.414,34.180,31.738,22.949,32.227,0
1539618261.180,29.785,31.250,30.762,31.250,-4.883,0
1539618261.184,38.574,36.133,34.180,26.367,5.371,0
1539618261.188,35.156,41.504,35.156,26.367,10.254,0
1539618261.192,23.438,39.551,37.109,31.250,8.789,0
1539618261.196,24.902,36.133,39.551,28.809,16.602,0
1539618261.200,32.227,40.039,42.969,37.109,61.523,0
1539618261.204,30.273,39.062,42.969,34.180,42.480,0
1539618261.208,23.438,38.574,28.320,25.879,7.812,0
1539618261.212,14.160,37.598,24.414,21.484,37.109,0
1539618261.216,10.254,30.273,34.180,14.160,20.996,0
1539618261.219,12.207,41.016,35.645,12.207,-19.531,0
1539618261.223,9.766,49.805,34.668,14.160,6.836,0
1539618261.227,21.973,47.852,38.574,20.996,38.086,0
1539618261.231,30.762,43.457,39.551,22.949,36.133,0
1539618261.235,29.785,37.109,37.598,24.902,33.691,0
1539618261.239,32.227,32.715,37.109,21.973,16.113,0
1539618261.243,40.527,41.992,33.691,23.438,17.578,0
1539618261.247,35.645,41.016,25.879,28.809,31.738,0
1539618261.251,24.414,39.062,24.902,27.344,51.270,0
1539618261.255,28.320,42.480,37.109,19.531,-6.836,0
1539618261.258,30.762,35.645,42.969,20.508,-3.906,0
1539618261.262,36.133,34.180,39.062,25.879,31.250,0
1539618261.266,41.016,31.738,40.527,20.996,65.430,0
1539618261.270,35.156,32.227,42.480,30.273,101.562,0
1539618261.274,38.574,34.668,42.969,35.645,62.012,0
1539618261.278,46.387,39.062,45.410,33.203,60.059,0
1539618261.282,37.598,39.551,42.480,37.598,55.176,0
1539618261.286,32.715,36.621,36.133,34.180,33.203,0
1539618261.290,35.645,27.344,34.668,29.297,-8.301,0
1539618261.294,36.621,25.879,37.598,34.668,-35.156,0
1539618261.298,39.062,32.715,35.645,41.504,-2.930,0
1539618261.301,37.109,35.156,32.715,38.574,53.711,0
1539618261.305,40.527,41.992,35.156,35.156,38.086,0
1539618261.309,49.805,41.016,37.598,33.691,59.082,0
1539618261.313,53.711,34.180,36.621,22.461,57.129,0
1539618261.317,47.363,34.180,29.785,17.578,43.457,0
1539618261.321,42.480,28.809,31.250,29.785,101.074,0
1539618261.325,41.016,27.832,38.086,33.203,40.039,0
1539618261.329,31.738,39.062,40.039,26.367,7.324,0
1539618261.333,26.367,45.898,38.086,28.809,50.781,0
1539618261.337,30.273,38.574,35.645,31.250,14.648,0
1539618261.341,33.691,28.809,39.062,38.086,-12.207,0
1539618261.344,32.227,39.551,38.086,43.457,-8.301,0
1539618261.348,40.039,45.898,41.504,49.805,9.277,0
1539618261.352,41.016,27.344,48.828,48.340,21.484,0
1539618261.356,39.062,25.879,50.781,43.945,40.527,0
1539618261.360,32.227,39.062,47.852,39.551,35.645,0
1539618261.364,32.715,40.527,43.945,34.668,15.625,0
1539618261.368,40.039,42.969,41.992,37.109,31.250,0
1539618261.372,35.645,41.016,35.156,32.715,27.344,0
1539618261.376,34.180,40.527,31.738,29.297,18.555,0
1539618261.380,41.992,44.922,31.250,33.203,9.277,0
1539618261.383,42.969,38.574,43.457,38.574,41.504,0
1539618261.387,50.781,32.227,51.270,40.527,29.297,0
1539618261.391,52.246,46.387,40.527,41.504,22.461,0
1539618261.395,42.480,49.316,33.691,41.016,56.152,0
1539618261.399,35.645,44.434,36.133,36.621,35.645,0
1539618261.403,42.480,42.480,36.133,35.156,12.207,0
1539618261.407,47.363,46.875,35.645,29.785,39.551,0
1539618261.411,47.363,44.434,32.227,32.715,37.598,0
1539618261.415,43.945,40.039,29.297,29.297,60.547,0
1539618261.419,36.621,39.062,35.156,21.484,28.809,0
1539618261.423,35.645,34.668,39.551,26.367,13.184,0
1539618261.426,33.203,34.668,35.645,33.203,30.273,0
1539618261.430,41.016,34.668,29.297,26.855,41.016,0
1539618261.434,49.316,38.574,31.250,20.508,95.215,0
1539618261.438,33.203,41.992,33.203,29.785,41.992,0
1539618261.442,34.668,43.457,43.945,37.109,-6.348,0
1539618261.446,39.551,33.691,45.898,30.762,2.930,0
1539618261.450,26.367,32.715,31.250,20.508,66.406,0
1539618261.454,26.855,41.016,29.785,26.855,46.875,0
1539618261.458,25.391,39.062,36.133,28.320,19.043,0
1539618261.462,20.020,37.109,38.574,20.996,53.711,0
1539618261.466,31.738,36.621,42.969,20.996,41.016,0
1539618261.469,34.668,41.016,37.598,23.926,11.230,0
1539618261.473,24.902,42.969,27.344,25.879,-19.531,0
1539618261.477,26.855,36.133,35.645,28.320,82.520,0
1539618261.481,27.344,39.062,42.480,24.902,131.348,0
1539618261.485,36.133,41.504,38.574,27.344,65.918,0
1539618261.489,49.316,35.156,36.133,29.297,43.945,0
1539618261.493,36.621,33.691,34.668,16.602,45.410,0
1539618261.497,22.949,36.621,41.992,20.996,22.949,0
1539618261.501,27.832,35.645,53.223,27.344,14.160,0
1539618261.505,23.438,30.762,44.434,15.625,-8.789,0
1539618261.508,23.926,33.691,34.668,10.742,-12.695,0
1539618261.512,26.367,42.480,41.016,23.438,-2.441,0
1539618261.516,18.066,41.504,43.457,29.785,55.664,0
1539618261.520,16.602,34.668,41.016,24.902,37.598,0
1539618261.524,21.973,33.203,44.922,22.949,5.859,0
1539618261.528,18.555,30.273,41.016,20.508,21.484,0
1539618261.532,14.648,28.320,38.086,20.996,30.273,0
1539618261.536,27.344,30.273,33.691,34.668,82.031,0
1539618261.540,34.180,37.598,34.668,36.621,83.984,0
1539618261.544,22.461,35.156,41.016,24.414,27.832,0
1539618261.548,22.461,30.273,40.527,25.391,47.363,0
1539618261.551,26.367,30.762,39.551,29.785,68.359,0
1539618261.555,24.902,29.297,38.086,23.438,25.391,0
1539618261.559,24.902,25.391,31.250,20.020,-12.695,0
1539618261.563,22.461,32.227,31.738,22.949,9.766,0
1539618261.567,26.367,39.551,40.527,19.531,-6.836,0
1539618261.571,29.297,38.086,38.574,20.996,-7.324,0
1539618261.575,22.949,42.480,32.227,26.855,60.547,0
1539618261.579,20.020,33.691,35.156,24.902,72.754,0
1539618261.583,21.973,24.414,42.480,23.438,41.992,0
1539618261.587,20.020,39.551,43.945,22.949,70.312,0
1539618261.591,22.461,37.598,38.086,20.020,52.246,0
1539618261.594,23.926,28.809,34.180,13.672,5.859,0
1539618261.598,12.695,37.109,32.227,14.648,42.969,0
1539618261.602,19.043,37.109,34.180,18.555,43.457,0
1539618261.606,34.180,42.480,44.434,25.879,34.180,0
1539618261.610,24.414,42.969,39.062,24.902,29.785,0
1539618261.614,10.254,39.551,21.973,16.113,44.922,0
1539618261.618,11.230,38.574,21.484,17.578,113.281,0
1539618261.622,16.113,27.344,34.668,19.531,75.684,0
1539618261.626,18.555,18.066,41.992,22.461,48.340,0
1539618261.630,22.461,33.203,33.691,23.438,76.172,0
1539618261.633,22.949,42.969,29.785,15.137,45.898,0
1539618261.637,11.719,36.133,37.598,14.160,60.547,0
1539618261.641,0.488,39.062,37.598,17.090,69.336,0
1539618261.645,6.348,39.551,38.574,15.625,13.184,0
1539618261.649,16.602,37.598,38.574,21.484,-18.555,0
1539618261.653,20.996,32.227,36.133,26.855,-0.488,0
1539618261.657,22.461,27.344,30.273,25.879,53.223,0
1539618261.661,17.090,31.738,31.738,20.996,118.164,0
1539618261.665,19.043,40.527,36.133,21.484,83.984,0
1539618261.669,37.598,45.898,42.480,30.273,42.969,0
1539618261.673,36.133,48.340,41.992,32.715,50.293,0
1539618261.676,15.137,42.480,30.273,20.508,38.574,0
1539618261.680,24.414,42.480,20.996,19.531,47.363,0
1539618261.684,33.203,36.621,26.367,27.344,42.480,0
1539618261.688,20.508,26.367,29.297,20.020,38.574,0
1539618261.692,18.555,32.715,27.344,19.531,28.320,0
1539618261.696,20.020,38.086,40.527,21.484,29.297,0
1539618261.700,18.066,37.598,41.504,11.230,-1.465,0
1539618261.704,16.113,34.180,34.668,7.812,-25.879,0
1539618261.708,19.043,33.691,34.668,12.207,2.441,0
1539618261.712,21.973,34.668,34.180,16.113,16.113,0
1539618261.716,15.137,34.180,28.809,7.812,5.371,0
1539618261.719,19.043,31.738,32.715,11.230,51.270,0
1539618261.723,21.973,32.227,33.691,24.414,31.250,0
1539618261.727,26.855,39.062,18.555,18.555,25.879,0
1539618261.731,24.902,44.922,19.043,16.602,39.062,0
1539618261.735,18.066,38.574,38.574,24.414,31.250,0
1539618261.739,22.461,29.297,44.434,22.949,73.242,0
1539618261.743,29.297,30.273,40.527,28.809,29.297,0
1539618261.747,40.039,35.645,35.645,32.715,8.789,0
1539618261.751,38.086,33.691,31.250,31.738,53.711,0
1539618261.755,35.156,28.320,32.227,30.273,55.664,0
1539618261.758,27.832,26.367,33.203,26.367,13.672,0
1539618261.762,15.625,38.086,29.785,24.902,20.996,0
1539618261.766,21.484,41.504,24.414,29.785,40.039,0
1539618261.770,25.879,37.109,25.391,28.809,9.766,0
1539618261.774,25.879,39.062,25.391,17.578,43.945,0
1539618261.778,28.320,34.668,23.926,16.602,45.898,0
1539618261.782,31.250,36.621,22.949,26.855,4.395,0
1539618261.786,35.645,45.410,24.414,28.320,3.906,0
1539618261.790,34.668,48.828,39.062,28.809,45.898,0
1539618261.794,41.504,41.016,41.016,33.203,50.781,0
1539618261.798,39.062,36.133,31.250,32.227,11.719,0
1539618261.801,25.879,41.992,29.297,27.832,15.625,0
1539618261.805,24.414,41.992,34.180,19.531,17.578,0
1539618261.809,27.344,30.762,38.574,17.090,-9.277,0
1539618261.813,30.273,28.809,37.598,29.785,-4.883,0
1539618261.817,32.715,37.598,39.062,32.715,6.836,0
1539618261.821,33.203,39.551,41.016,22.949,38.574,0
1539618261.825,45.410,34.180,36.133,21.484,59.570,0
1539618261.829,38.574,26.855,28.809,30.273,52.734,0
1539618261.833,27.344,35.156,35.645,34.180,3.906,0
1539618261.837,31.250,38.086,36.133,26.855,-17.090,0
1539618261.841,29.297,34.180,31.738,23.926,-30.762,0
1539618261.844,41.992,25.391,45.898,35.156,-30.762,0
1539618261.848,48.340,20.996,47.363,40.527,24.902,0
1539618261.852,39.551,33.203,34.668,31.738,32.715,0
1539618261.856,35.156,38.574,32.715,24.414,37.598,0
1539618261.860,36.133,37.598,31.250,27.344,5.859,0
1539618261.864,39.062,42.480,25.391,28.809,-27.344,0
1539618261.868,36.133,43.457,31.250,25.879,2.930,0
1539618261.872,33.691,44.922,35.156,22.949,78.613,0
1539618261.876,34.668,45.410,33.203,27.832,49.316,0
