timestamps,TP9,AF7,AF8,TP10,Right AUX,Marker0
1539627904.321,15.625,34.180,46.387,64.453,20.508,0
1539627904.324,17.578,30.762,40.527,39.551,-7.812,0
1539627904.328,9.766,31.738,36.133,24.902,-5.371,0
1539627904.332,17.578,41.016,29.297,45.898,59.570,0
1539627904.336,25.879,37.109,26.367,60.547,83.984,0
1539627904.340,31.738,27.832,34.668,52.734,48.340,0
1539627904.344,36.133,36.133,41.504,27.832,70.801,0
1539627904.348,11.230,32.227,43.457,2.930,17.090,0
1539627904.352,-2.441,29.785,45.410,8.301,0.488,0
1539627904.356,8.301,35.645,46.875,20.020,25.879,0
1539627904.360,-9.277,32.227,48.828,21.484,34.180,0
1539627904.364,-8.301,31.738,36.133,32.227,18.555,0
1539627904.367,6.836,26.855,29.297,25.879,14.160,0
1539627904.371,0.488,20.508,40.527,2.930,72.754,0
1539627904.375,25.391,24.414,44.434,21.973,72.754,0
1539627904.379,47.363,15.137,43.945,41.504,51.758,0
1539627904.383,32.227,19.043,39.551,27.832,34.180,0
1539627904.387,18.555,41.504,38.574,21.973,8.301,0
1539627904.391,17.090,38.574,39.062,27.344,46.875,0
1539627904.395,9.277,38.574,41.992,33.691,42.969,0
1539627904.399,12.695,41.504,38.574,28.809,34.180,0
1539627904.403,-1.953,31.738,33.691,25.391,35.156,0
1539627904.407,-3.906,29.297,37.598,20.996,3.906,0
1539627904.410,0.977,21.484,39.551,37.109,-0.977,0
1539627904.414,10.742,20.508,31.250,40.527,12.695,0
1539627904.418,23.438,26.367,26.367,-5.371,19.531,0
1539627904.422,24.902,33.691,43.945,0.000,40.527,1
1539627904.426,25.391,45.898,49.316,20.996,37.598,0
1539627904.430,16.113,38.086,35.156,15.137,49.805,0
1539627904.434,14.160,33.691,31.738,31.250,59.570,0
1539627904.438,13.672,36.621,36.133,44.922,74.219,0
1539627904.442,21.973,40.039,40.527,55.176,41.016,0
1539627904.446,21.973,45.898,43.945,50.293,19.531,0
1539627904.449,22.461,34.180,39.062,28.809,57.129,0
1539627904.453,41.992,28.809,39.062,22.949,40.527,0
1539627904.457,48.340,41.016,41.016,12.207,39.062,0
1539627904.461,35.645,31.250,31.250,12.207,34.180,0
1539627904.465,38.086,23.926,37.109,19.043,-2.441,0
1539627904.469,45.410,35.645,44.922,10.254,23.438,0
1539627904.473,39.551,38.574,32.715,31.738,60.547,0
1539627904.477,23.926,46.387,23.926,23.926,-18.066,0
1539627904.481,22.949,48.828,24.902,1.953,-50.781,0
1539627904.485,23.926,44.434,27.832,13.672,-9.766,0
1539627904.489,17.090,43.945,30.273,17.090,13.184,0
1539627904.492,21.973,42.480,26.855,7.812,-11.719,0
1539627904.496,25.391,50.293,31.250,14.648,-7.812,0
1539627904.500,17.578,46.875,29.785,28.809,-23.438,0
1539627904.504,20.508,35.645,20.508,32.227,0.977,0
1539627904.508,22.461,36.621,26.367,31.250,22.949,0
1539627904.512,7.324,22.461,25.879,47.363,16.602,0
1539627904.516,9.277,20.996,24.902,38.086,20.508,0
1539627904.520,20.508,37.109,32.227,-15.625,54.688,0
1539627904.524,28.809,40.527,36.133,-38.574,102.539,0
1539627904.528,24.414,45.898,32.715,-12.695,42.969,0
1539627904.532,26.855,50.781,33.203,8.301,12.695,0
1539627904.535,31.738,46.875,31.738,22.949,87.891,0
1539627904.539,8.789,39.062,29.785,32.715,76.660,0
1539627904.543,3.906,33.691,33.691,42.969,82.520,0
1539627904.547,22.949,36.621,33.691,52.734,57.617,0
1539627904.551,23.926,41.016,39.551,42.480,26.855,0
1539627904.555,15.137,40.039,42.480,40.039,29.297,0
1539627904.559,25.391,46.387,37.598,65.430,-0.488,0
1539627904.563,36.133,51.270,39.551,53.711,12.695,0
1539627904.567,34.180,46.387,40.039,24.902,17.578,0
1539627904.571,10.742,41.504,33.203,18.066,37.598,0
1539627904.574,-0.488,43.945,33.691,27.344,76.172,0
1539627904.578,-11.230,41.992,34.668,30.762,68.359,0
1539627904.582,-1.465,39.551,32.715,4.395,8.301,0
1539627904.586,21.973,49.316,35.645,-12.207,-23.926,0
1539627904.590,-7.812,50.293,22.461,-23.438,-29.297,0
1539627904.594,-36.621,47.852,20.020,-30.762,11.719,0
1539627904.598,-41.504,54.199,24.414,-33.691,65.430,0
1539627904.602,-54.199,52.246,9.277,-60.059,47.363,0
1539627904.606,-77.148,49.316,0.488,-84.961,47.363,0
1539627904.610,-93.262,56.641,-0.488,-84.961,34.180,0
1539627904.614,-90.332,64.941,-0.977,-70.312,7.324,0
1539627904.617,-96.191,65.430,2.930,-69.824,-14.160,0
1539627904.621,-121.094,52.246,18.066,-90.820,-6.348,0
1539627904.625,-150.879,50.781,11.719,-107.910,35.156,0
1539627904.629,-151.855,62.988,3.906,-121.094,28.809,0
1539627904.633,-119.629,66.406,8.789,-135.742,-16.602,0
1539627904.637,-106.445,63.965,8.301,-131.836,-24.902,0
1539627904.641,-121.094,57.129,11.230,-112.305,29.785,0
1539627904.645,-121.582,53.223,19.531,-98.633,59.570,0
1539627904.649,-111.328,59.082,27.344,-101.074,21.973,0
1539627904.653,-111.816,58.594,24.902,-93.262,37.598,0
1539627904.657,-104.492,51.270,16.602,-82.520,52.246,0
1539627904.660,-88.867,52.246,16.113,-83.008,82.031,0
1539627904.664,-69.824,51.270,19.043,-67.871,82.031,0
1539627904.668,-73.242,47.852,15.137,-56.641,15.625,0
1539627904.672,-81.543,42.480,21.973,-42.480,41.016,0
1539627904.676,-60.547,37.109,37.598,-27.832,59.082,0
1539627904.680,-37.109,38.086,34.668,-25.879,75.195,0
1539627904.684,-25.879,36.621,30.273,-13.184,87.402,0
1539627904.688,-7.324,36.133,31.738,1.465,47.363,0
1539627904.692,1.953,32.715,38.574,9.766,45.898,0
1539627904.696,11.719,24.414,44.922,29.297,20.508,0
1539627904.699,16.113,25.879,44.922,51.758,65.430,0
1539627904.703,22.949,35.645,48.828,54.688,129.395,0
1539627904.707,31.738,31.738,44.434,67.383,142.578,0
1539627904.711,23.438,20.996,40.527,74.219,97.656,0
1539627904.715,31.738,28.809,42.969,56.641,63.477,0
1539627904.719,55.664,39.551,42.480,48.340,72.754,0
1539627904.723,56.641,30.273,47.363,57.617,102.051,0
1539627904.727,52.246,19.043,49.316,51.758,84.473,0
1539627904.731,55.176,15.625,48.340,49.805,30.762,0
1539627904.735,48.340,11.230,52.246,61.523,36.621,0
1539627904.739,50.781,13.672,52.246,61.523,58.594,0
1539627904.742,71.777,22.949,41.992,72.266,26.367,0
1539627904.746,91.797,30.273,37.109,102.051,23.438,0
1539627904.750,83.496,26.855,43.945,117.188,19.531,0
1539627904.754,67.383,22.949,49.316,95.703,20.020,0
1539627904.758,71.777,21.973,50.781,80.566,19.531,0
1539627904.762,75.195,23.926,45.410,86.426,-21.973,0
1539627904.766,80.078,28.320,46.387,69.824,19.531,0
1539627904.770,80.566,32.227,48.828,72.266,48.340,0
1539627904.774,71.289,30.273,52.734,106.445,16.602,0
1539627904.778,71.289,29.785,58.105,109.375,-11.230,0
1539627904.782,81.543,28.320,49.316,83.008,33.203,0
1539627904.785,67.383,24.414,40.527,78.125,36.133,0
1539627904.789,51.270,31.738,46.875,92.773,-53.223,0
1539627904.793,61.035,39.551,42.480,84.473,-39.062,0
1539627904.797,63.965,37.109,38.086,79.102,43.945,0
1539627904.801,64.941,28.809,45.410,85.938,12.695,0
1539627904.805,62.988,26.367,42.969,72.266,-22.949,0
1539627904.809,65.918,30.273,45.898,77.637,-20.020,0
1539627904.813,73.730,28.320,50.781,91.797,-2.930,0
1539627904.817,73.242,25.391,44.434,74.219,81.543,0
1539627904.821,67.871,29.297,39.551,65.430,60.059,0
1539627904.824,66.406,29.297,43.457,81.543,19.043,0
1539627904.828,63.477,34.180,45.410,98.633,42.969,0
1539627904.832,56.152,33.203,42.480,94.727,65.430,0
1539627904.836,46.387,25.879,36.621,86.426,46.387,0
1539627904.840,58.594,29.297,36.621,74.219,44.434,0
1539627904.844,66.895,33.203,37.598,59.570,47.852,0
1539627904.848,65.918,29.785,35.156,63.965,54.688,0
1539627904.852,57.129,28.809,46.875,60.059,-1.953,0
1539627904.856,39.062,31.250,54.199,57.129,-30.762,0
1539627904.860,35.645,36.133,55.176,74.219,18.066,0
1539627904.864,34.180,39.551,57.129,77.637,13.672,0
1539627904.867,33.203,27.344,52.734,64.941,-11.230,0
1539627904.871,40.527,20.020,46.875,68.848,46.875,0
1539627904.875,45.410,27.832,51.270,62.012,47.852,0
1539627904.879,35.645,25.391,48.828,60.059,9.766,0
1539627904.883,54.688,31.738,41.504,82.031,75.195,0
1539627904.887,54.688,40.039,41.016,103.516,69.824,0
1539627904.891,21.484,41.992,40.527,92.773,55.664,0
1539627904.895,12.695,42.480,42.480,41.504,41.016,0
1539627904.899,23.926,40.039,41.504,6.836,33.691,0
1539627904.903,38.574,41.504,32.715,7.324,25.391,0
1539627904.907,35.156,48.828,26.855,19.043,24.902,0
1539627904.910,15.625,49.316,25.391,34.668,11.230,0
1539627904.914,16.113,40.527,36.133,43.457,-47.852,0
1539627904.918,22.461,35.645,34.668,28.320,-26.855,0
1539627904.922,26.855,43.945,25.879,13.672,-19.043,0
1539627904.926,31.738,48.340,30.273,26.367,-30.273,0
1539627904.930,33.203,37.598,21.484,36.133,16.113,0
1539627904.934,39.551,34.180,21.973,40.527,31.250,0
1539627904.938,42.480,44.434,35.156,34.668,23.438,0
1539627904.942,46.875,47.852,26.367,31.250,12.695,0
1539627904.946,41.016,38.574,20.020,40.039,3.418,0
1539627904.949,26.367,34.180,25.391,39.062,22.461,0
1539627904.953,15.625,35.645,30.273,28.320,58.594,0
1539627904.957,23.438,39.551,38.086,34.668,87.891,0
1539627904.961,36.621,44.434,42.969,63.477,42.969,0
1539627904.965,24.902,35.156,38.086,64.453,-20.020,0
1539627904.969,27.344,27.344,28.809,51.270,20.508,0
1539627904.973,32.227,43.457,37.109,63.477,86.426,0
1539627904.977,30.762,44.922,42.480,80.566,42.480,0
1539627904.981,30.762,36.621,34.668,82.031,69.824,0
1539627904.985,26.367,44.922,33.691,88.867,73.242,0
1539627904.989,17.090,40.527,29.785,23.926,-4.883,0
1539627904.992,25.391,37.109,28.320,-10.254,-2.441,0
1539627904.996,41.504,40.039,38.574,24.414,44.434,0
1539627905.000,45.410,38.574,36.621,37.598,32.227,0
1539627905.004,41.504,43.457,30.762,47.852,16.602,0
1539627905.008,28.809,37.598,30.762,28.320,81.543,0
1539627905.012,15.137,34.180,32.227,26.367,88.379,0
1539627905.016,5.371,38.574,32.227,36.133,75.684,0
1539627905.020,9.766,35.645,32.715,42.480,20.020,0
1539627905.024,18.555,32.715,35.645,48.340,-13.672,0
1539627905.028,18.066,25.879,27.832,47.363,50.781,0
1539627905.032,22.949,26.855,24.902,66.406,36.133,0
1539627905.035,24.414,36.133,37.109,51.270,36.133,0
1539627905.039,28.809,40.527,37.598,21.484,12.695,0
1539627905.043,37.598,45.410,41.016,36.621,-0.977,0
1539627905.047,36.133,45.410,42.480,35.645,-8.789,0
1539627905.051,37.598,40.527,34.668,42.969,48.340,0
1539627905.055,32.227,35.645,37.598,51.270,93.750,0
1539627905.059,26.855,24.414,32.227,17.578,31.250,0
1539627905.063,20.020,21.484,32.227,18.066,71.289,0
1539627905.067,14.648,37.109,38.574,35.645,90.820,0
1539627905.071,6.348,47.363,38.574,49.316,52.246,0
1539627905.074,22.461,52.246,47.363,66.406,31.738,0
1539627905.078,26.367,49.316,48.828,72.266,44.434,0
1539627905.082,16.602,35.156,32.227,32.227,28.320,0
1539627905.086,19.043,33.203,33.203,20.996,38.574,0
1539627905.090,10.254,36.133,40.527,56.152,36.133,0
1539627905.094,18.066,36.133,38.574,58.105,23.438,0
1539627905.098,21.973,31.250,41.992,50.293,-9.766,0
1539627905.102,17.578,39.062,42.480,44.922,-4.883,0
1539627905.106,29.785,41.504,37.598,23.926,41.504,0
1539627905.110,20.996,42.480,30.762,15.137,27.832,0
1539627905.114,10.742,44.922,41.992,20.996,-12.695,0
1539627905.117,26.855,48.340,53.711,38.086,27.344,0
1539627905.121,20.020,40.039,48.340,49.316,107.910,0
1539627905.125,9.766,29.785,41.016,35.156,92.773,0
1539627905.129,15.137,31.250,39.062,17.578,-9.766,0
1539627905.133,10.742,40.039,32.715,17.578,0.977,0
1539627905.137,26.855,46.387,39.062,30.273,50.781,0
1539627905.141,37.109,39.551,45.410,43.457,33.691,0
1539627905.145,21.973,35.156,34.668,40.527,35.156,0
1539627905.149,25.879,33.691,27.344,25.879,29.785,0
1539627905.153,24.414,35.156,29.785,29.785,25.879,0
1539627905.157,8.789,38.574,35.645,50.781,36.621,0
1539627905.160,6.348,34.180,30.273,49.805,77.637,0
1539627905.164,13.184,37.109,28.809,35.645,41.016,0
1539627905.168,3.418,43.457,37.598,22.949,30.273,0
1539627905.172,-0.488,39.062,41.992,8.789,35.645,0
1539627905.176,28.320,36.133,43.457,13.184,16.602,0
1539627905.180,30.762,49.316,44.922,31.250,14.160,0
1539627905.184,29.297,47.363,35.156,33.203,11.719,0
1539627905.188,33.203,34.180,38.574,44.922,21.484,0
1539627905.192,14.648,31.250,46.875,41.504,1.465,0
1539627905.196,6.836,28.809,38.086,19.531,-30.762,0
1539627905.199,19.043,39.062,41.992,50.293,-11.230,0
1539627905.203,19.043,45.410,42.969,70.312,58.105,0
1539627905.207,22.461,39.062,38.574,41.504,60.547,0
1539627905.211,-0.977,27.832,36.133,13.672,56.641,0
1539627905.215,-0.488,34.668,37.598,34.668,10.742,0
1539627905.219,20.996,40.039,43.457,44.434,-18.066,0
1539627905.223,7.812,32.715,42.969,23.438,-13.184,0
1539627905.227,11.230,33.203,41.504,41.504,19.531,0
1539627905.231,28.320,40.527,34.668,78.613,53.711,0
1539627905.235,48.828,41.992,25.879,102.051,30.273,0
1539627905.239,34.180,36.621,22.461,56.152,20.508,0
1539627905.242,23.438,33.691,36.621,-0.977,48.828,0
1539627905.246,19.531,33.203,48.828,16.602,21.484,0
1539627905.250,12.695,31.250,41.992,25.391,-7.812,0
1539627905.254,17.578,31.738,27.832,27.344,20.996,0
1539627905.258,15.137,40.527,38.086,62.988,72.754,0
1539627905.262,14.648,40.039,34.668,65.430,50.781,0
1539627905.266,9.766,26.855,18.555,1.465,-0.488,0
1539627905.270,16.602,25.391,29.297,-4.883,70.801,0
1539627905.274,51.270,36.621,30.762,28.320,59.082,0
1539627905.278,45.410,40.039,26.855,34.668,0.977,0
1539627905.282,3.418,37.109,31.250,42.969,39.551,0
1539627905.285,4.883,33.203,35.156,44.434,62.500,0
1539627905.289,10.254,34.180,41.504,36.621,27.344,0
1539627905.293,4.395,46.387,41.016,23.926,-12.695,0
1539627905.297,19.531,50.781,34.180,22.461,27.832,0
1539627905.301,38.574,50.293,35.156,52.246,58.105,0
1539627905.305,24.902,45.898,28.320,65.430,55.664,0
1539627905.309,12.207,31.738,26.855,62.988,72.266,0
1539627905.313,23.438,20.508,33.203,36.621,74.219,0
1539627905.317,21.973,19.043,32.227,15.625,88.379,0
1539627905.321,16.602,26.367,32.715,30.762,65.430,0
1539627905.324,27.832,35.156,32.715,36.133,93.750,0
1539627905.328,38.574,47.852,35.645,37.109,45.898,0
1539627905.332,40.527,50.781,32.715,31.250,0.977,0
1539627905.336,30.273,39.551,26.855,21.484,37.598,0
1539627905.340,34.180,36.621,32.715,18.066,56.152,0
1539627905.344,50.781,42.969,30.762,14.160,79.590,0
1539627905.348,41.992,43.945,41.992,28.809,17.090,0
1539627905.352,48.828,47.852,41.016,27.832,-46.387,0
1539627905.356,36.621,40.039,19.043,23.926,43.945,0
1539627905.360,11.230,33.203,26.367,31.250,105.469,0
1539627905.364,12.695,38.574,39.551,10.742,25.879,0
1539627905.367,3.418,39.062,42.480,23.438,21.484,0
1539627905.371,17.090,39.062,43.457,44.434,27.832,0
1539627905.375,21.973,39.551,44.434,50.781,7.812,0
1539627905.379,12.207,44.434,37.598,66.895,29.297,0
1539627905.383,13.672,44.922,33.691,55.664,13.184,0
1539627905.387,8.789,26.367,34.180,32.227,20.508,0
1539627905.391,14.160,21.484,34.668,24.414,7.812,0
1539627905.395,24.902,42.480,41.504,36.621,50.781,0
1539627905.399,16.602,45.898,43.945,49.316,48.828,0
1539627905.403,12.695,32.715,40.527,39.551,32.227,0
1539627905.407,26.367,26.367,40.039,32.715,35.156,0
1539627905.410,36.621,31.738,42.969,47.852,49.805,0
1539627905.414,42.480,42.480,41.992,47.852,68.848,0
1539627905.418,23.438,45.410,35.645,44.434,12.695,0
1539627905.422,6.836,38.574,36.621,27.344,24.414,0
1539627905.426,16.602,34.668,35.156,3.906,-16.602,0
1539627905.430,11.719,35.156,30.273,21.973,-32.227,0
1539627905.434,-5.371,26.855,37.109,29.297,-2.930,0
1539627905.438,5.859,23.926,41.504,32.227,17.090,0
1539627905.442,16.113,31.738,45.410,40.039,81.543,0
1539627905.446,-1.465,34.180,45.410,34.180,94.238,0
1539627905.449,12.207,31.738,30.273,41.992,82.520,0
1539627905.453,32.227,32.715,28.320,60.059,81.543,0
1539627905.457,27.832,33.203,42.969,55.176,1.465,0
1539627905.461,18.066,29.785,47.852,42.480,3.418,0
1539627905.465,23.926,29.297,40.527,43.945,40.527,0
1539627905.469,23.926,24.902,37.598,37.109,20.996,0
1539627905.473,29.785,35.645,44.434,50.293,-22.461,0
1539627905.477,27.344,45.410,46.387,39.062,-9.277,0
1539627905.481,15.137,33.203,34.668,16.113,42.969,0
1539627905.485,20.996,12.695,34.180,33.203,53.711,0
1539627905.489,40.527,22.461,45.410,57.129,57.129,0
1539627905.492,37.109,46.875,37.109,43.945,37.109,0
1539627905.496,11.719,45.898,28.809,29.785,-2.930,0
1539627905.500,11.719,42.969,33.203,47.363,-19.043,0
1539627905.504,0.977,36.621,38.086,47.363,25.391,0
1539627905.508,-5.371,35.156,38.574,39.062,44.434,0
1539627905.512,2.930,39.551,41.016,39.551,1.953,0
1539627905.516,9.766,30.762,40.039,34.180,-14.160,0
1539627905.520,21.973,30.273,33.691,25.391,-6.836,0
1539627905.524,18.066,35.645,27.344,9.277,-22.949,0
1539627905.528,31.738,35.645,28.809,2.930,-29.785,0
1539627905.532,39.062,36.133,47.363,20.996,52.246,0
1539627905.535,20.020,32.715,46.387,29.785,84.961,0
1539627905.539,18.555,38.574,34.180,34.668,25.879,0
1539627905.543,21.973,47.363,25.879,33.691,-28.809,0
1539627905.547,15.625,48.340,20.508,22.461,0.977,0
1539627905.551,14.648,47.852,29.297,34.180,18.555,0
1539627905.555,18.066,40.527,43.457,39.551,-1.953,0
1539627905.559,24.414,43.457,39.062,35.645,1.953,0
1539627905.563,9.766,28.809,31.250,47.363,-10.742,0
1539627905.567,16.602,14.160,37.598,37.598,8.301,0
1539627905.571,32.715,43.945,46.387,34.668,5.859,0
1539627905.574,16.602,52.734,41.016,49.805,37.598,0
1539627905.578,22.949,43.945,29.785,32.227,107.910,0
1539627905.582,35.645,46.875,28.809,27.832,60.547,0
1539627905.586,24.902,39.062,32.715,32.715,61.035,0
1539627905.590,15.137,35.645,33.691,20.508,41.992,0
1539627905.594,15.137,37.598,35.156,32.227,12.207,0
1539627905.598,17.578,37.109,35.156,35.645,24.902,0
1539627905.602,31.738,40.527,37.109,20.996,49.316,0
1539627905.606,26.367,31.250,41.504,27.832,45.410,0
1539627905.610,14.648,27.344,40.039,40.527,0.488,0
1539627905.614,20.996,32.227,28.320,33.691,10.254,0
1539627905.617,11.719,36.621,23.926,36.133,29.297,0
1539627905.621,11.719,45.898,36.621,46.875,97.168,0
1539627905.625,15.137,50.293,43.457,49.805,107.422,0
1539627905.629,25.879,47.363,40.039,51.270,34.668,0
1539627905.633,31.738,46.875,40.039,30.273,68.848,0
1539627905.637,28.809,44.922,41.016,18.066,13.672,0
1539627905.641,24.414,33.691,30.762,19.043,-7.324,0
1539627905.645,15.625,26.367,28.809,23.926,66.406,0
1539627905.649,20.508,32.227,22.949,31.738,65.430,0
1539627905.653,22.949,38.574,20.020,33.691,2.930,0
1539627905.657,17.090,35.645,36.621,23.438,38.086,0
1539627905.660,19.043,34.180,39.062,6.348,92.773,0
1539627905.664,30.273,40.039,36.621,32.227,46.387,0
1539627905.668,22.949,39.062,43.945,41.016,90.820,0
1539627905.672,1.465,33.691,41.016,35.156,71.777,0
1539627905.676,-8.301,29.785,35.156,32.715,5.371,0
1539627905.680,16.602,38.574,40.039,36.133,3.906,0
1539627905.684,17.578,40.527,39.551,41.992,-20.508,0
1539627905.688,13.184,28.320,27.832,41.992,5.859,0
1539627905.692,8.301,29.785,25.391,39.062,79.102,0
1539627905.696,0.000,45.410,32.227,41.016,82.520,0
1539627905.699,9.766,43.457,35.156,47.852,14.648,0
1539627905.703,5.371,34.668,35.645,31.738,45.898,0
1539627905.707,10.742,38.086,37.598,16.113,78.613,0
1539627905.711,22.949,33.691,25.879,21.484,61.035,0
1539627905.715,20.508,30.273,28.809,27.832,62.012,0
1539627905.719,9.277,35.156,41.992,37.598,28.809,0
1539627905.723,20.020,32.715,33.691,42.480,-4.395,0
1539627905.727,31.250,36.621,41.016,50.293,0.000,0
1539627905.731,14.160,41.016,39.062,39.062,28.809,0
1539627905.735,-3.906,37.598,29.297,-0.977,-5.859,0
1539627905.739,16.113,26.855,32.227,0.488,2.441,0
1539627905.742,32.715,17.578,31.250,36.133,30.273,0
1539627905.746,18.066,28.320,26.367,43.945,9.277,0
1539627905.750,15.137,48.828,22.461,20.508,32.715,0
1539627905.754,23.926,43.945,25.391,18.066,23.438,0
1539627905.758,28.320,28.320,8.789,41.992,52.246,0
1539627905.762,2.441,32.227,11.719,62.988,79.102,0
1539627905.766,-9.277,41.992,29.297,32.227,57.129,0
1539627905.770,7.812,51.758,37.109,3.418,57.617,0
1539627905.774,8.301,47.363,44.434,22.949,-0.977,0
1539627905.778,-2.441,35.156,38.086,27.344,22.461,0
1539627905.782,-0.488,37.109,32.227,29.297,115.723,0
1539627905.785,-0.977,33.691,30.762,18.066,64.941,0
1539627905.789,0.488,23.438,30.273,20.996,12.695,0
1539627905.793,4.395,27.832,33.691,39.062,64.941,0
1539627905.797,13.672,28.809,36.133,46.387,65.918,0
1539627905.801,20.020,26.855,30.762,41.504,89.355,1
1539627905.805,24.902,36.621,32.715,28.809,74.219,0
1539627905.809,26.855,44.434,38.574,25.879,23.926,0
1539627905.813,23.926,39.062,34.668,33.691,23.438,0
1539627905.817,12.207,33.691,31.250,33.691,51.758,0
1539627905.821,4.395,41.504,32.227,37.109,86.914,0
1539627905.824,13.184,40.039,37.598,58.105,57.617,0
1539627905.828,25.879,32.715,41.504,59.570,62.500,0
1539627905.832,22.949,30.273,40.039,42.969,87.891,0
1539627905.836,15.625,26.367,31.738,30.273,17.578,0
1539627905.840,29.297,33.691,26.855,17.090,-11.719,0
1539627905.844,30.762,40.039,32.715,20.508,61.035,0
1539627905.848,30.762,36.133,30.273,26.367,80.078,0
1539627905.852,42.480,44.434,34.180,24.414,29.785,0
1539627905.856,42.480,49.316,39.062,32.227,5.859,0
1539627905.860,25.391,29.785,33.203,42.969,-3.906,0
1539627905.864,11.719,25.391,28.809,41.992,2.441,0
1539627905.867,27.344,34.668,34.668,31.738,26.367,0
1539627905.871,38.086,39.551,36.133,39.062,9.766,0
1539627905.875,30.273,32.715,28.809,41.504,22.949,0
1539627905.879,20.508,26.367,28.320,33.691,37.109,0
1539627905.883,15.137,32.227,33.203,38.574,13.184,0
1539627905.887,5.371,35.645,39.551,41.016,8.301,0
1539627905.891,14.160,30.273,44.434,36.621,15.625,0
1539627905.895,18.555,31.738,41.992,52.734,23.438,0
1539627905.899,11.719,32.715,36.133,42.969,52.734,0
1539627905.903,11.719,33.203,34.668,29.297,57.617,0
1539627905.907,14.160,35.156,34.180,40.039,13.184,0
1539627905.910,16.113,32.227,32.715,46.875,-6.348,0
1539627905.914,20.996,36.621,20.996,31.738,36.133,0
1539627905.918,31.250,42.480,18.066,32.715,74.219,0
1539627905.922,19.531,30.273,30.273,25.879,-7.324,0
1539627905.926,3.418,26.855,42.480,18.555,-73.242,0
1539627905.930,-13.672,34.180,42.480,22.461,-44.922,0
1539627905.934,-15.625,30.762,43.457,15.137,1.953,0
1539627905.938,14.160,34.668,53.223,23.438,77.637,0
1539627905.942,23.438,30.273,54.688,26.855,44.434,0
1539627905.946,10.742,17.090,45.898,11.719,17.578,0
1539627905.949,9.766,20.996,41.016,20.508,-12.695,0
1539627905.953,12.207,25.879,41.992,31.250,-0.977,0
1539627905.957,3.906,21.973,41.992,30.762,86.426,0
1539627905.961,10.254,26.367,40.039,49.316,77.637,0
1539627905.965,19.043,27.344,35.156,36.133,86.426,0
1539627905.969,24.414,26.367,35.645,13.672,34.180,0
1539627905.973,16.602,30.762,34.668,29.785,-6.836,0
1539627905.977,8.789,20.996,32.227,46.387,73.242,0
1539627905.981,4.883,14.648,35.156,39.062,120.605,0
1539627905.985,-2.441,33.691,30.273,29.785,58.594,0
1539627905.989,6.836,49.805,32.715,16.113,17.090,0
1539627905.992,2.441,46.875,38.574,21.973,52.734,0
1539627905.996,0.000,40.039,38.574,39.551,64.941,0
1539627906.000,10.742,36.621,38.086,23.926,-2.441,0
1539627906.004,-0.977,32.227,37.109,23.438,-34.180,0
1539627906.008,7.812,35.645,39.551,36.133,16.113,0
1539627906.012,26.367,31.738,41.992,13.184,27.832,0
1539627906.016,35.645,29.297,39.062,9.277,14.160,0
1539627906.020,47.852,34.180,33.691,32.227,43.457,0
1539627906.024,22.461,27.832,33.203,46.387,46.875,0
1539627906.028,9.277,22.949,33.203,54.199,41.992,0
1539627906.032,12.695,30.273,36.621,51.758,11.230,0
1539627906.035,11.230,42.969,41.016,26.855,10.742,0
1539627906.039,12.207,42.969,35.645,0.977,59.082,0
1539627906.043,5.371,42.480,36.133,0.488,38.086,0
1539627906.047,4.395,44.922,32.227,5.859,45.898,0
1539627906.051,9.766,34.668,33.203,21.973,12.207,0
1539627906.055,13.672,26.855,38.574,42.969,17.578,0
1539627906.059,12.207,33.203,36.621,50.293,52.734,0
1539627906.063,2.930,27.832,32.227,45.410,-6.836,0
1539627906.067,13.672,17.090,32.715,18.555,-21.484,0
1539627906.071,28.809,34.180,45.410,26.855,16.602,0
1539627906.074,26.367,51.270,53.223,49.805,-3.418,0
1539627906.078,13.672,45.410,39.062,14.160,14.160,0
1539627906.082,6.836,34.180,35.645,3.418,50.781,0
1539627906.086,19.531,30.273,38.574,28.809,15.137,0
1539627906.090,26.367,34.668,34.180,37.109,8.301,0
1539627906.094,20.996,35.156,35.156,35.645,-6.836,0
1539627906.098,20.996,43.945,42.969,43.945,-61.035,0
1539627906.102,10.742,49.316,39.551,46.875,3.906,0
1539627906.106,-0.488,39.551,31.250,40.527,56.641,0
1539627906.110,20.020,28.320,32.227,41.504,44.434,0
1539627906.114,28.809,35.645,38.574,52.246,60.547,0
1539627906.117,20.996,45.410,38.086,41.992,21.484,0
1539627906.121,12.207,32.715,29.785,16.113,-27.344,0
1539627906.125,0.977,28.809,28.320,0.977,3.418,0
1539627906.129,5.859,39.062,29.785,4.883,62.012,0
1539627906.133,23.438,36.621,37.109,30.273,45.410,0
1539627906.137,36.621,32.227,41.992,62.988,13.184,0
1539627906.141,30.762,31.738,31.738,53.711,30.273,0
1539627906.145,17.090,32.227,28.809,22.949,44.922,0
1539627906.149,9.277,33.691,26.855,17.090,70.801,0
1539627906.153,10.254,27.832,29.297,20.996,75.195,0
1539627906.157,12.207,30.762,27.344,21.484,78.613,0
1539627906.160,5.371,41.992,13.184,11.719,64.941,0
1539627906.164,0.488,44.434,11.719,16.602,-0.488,0
1539627906.168,-3.906,45.898,22.461,27.832,47.363,0
1539627906.172,-9.766,44.922,28.809,26.367,79.590,0
1539627906.176,0.488,36.133,25.391,12.207,41.504,0
1539627906.180,9.766,29.785,22.461,4.883,37.598,0
1539627906.184,19.043,36.133,20.508,15.625,77.148,0
1539627906.188,17.578,42.480,21.973,10.742,59.570,0
1539627906.192,20.508,48.828,30.273,16.113,46.387,0
1539627906.196,29.785,42.969,33.691,26.855,54.688,0
1539627906.199,32.227,28.809,27.344,14.160,44.922,0
1539627906.203,31.738,28.809,29.785,20.996,71.777,0
1539627906.207,17.090,37.109,32.227,42.480,62.012,0
1539627906.211,21.484,47.363,29.785,28.809,37.598,0
1539627906.215,30.273,45.898,28.320,17.578,39.062,0
1539627906.219,30.762,40.039,33.691,32.227,30.273,0
1539627906.223,31.738,45.410,35.645,27.344,8.789,0
1539627906.227,34.180,45.410,29.785,27.344,53.223,0
1539627906.231,28.809,36.621,27.344,27.344,9.277,0
1539627906.235,23.438,35.156,28.320,19.531,-2.441,0
1539627906.239,26.367,38.086,27.832,19.531,37.109,0
1539627906.242,27.344,36.133,18.555,34.180,-21.484,0
1539627906.246,15.625,36.133,24.902,55.176,-38.086,0
1539627906.250,17.578,31.250,39.551,49.316,-15.137,0
1539627906.254,12.207,24.414,38.086,23.438,35.156,0
1539627906.258,7.324,27.832,34.668,30.273,75.684,0
1539627906.262,4.395,31.738,33.691,23.926,-9.277,0
1539627906.266,11.719,34.180,28.809,4.395,-8.789,0
1539627906.270,20.508,39.551,31.250,19.531,-3.418,0
1539627906.274,20.020,45.410,35.645,31.738,-45.898,0
1539627906.278,28.809,39.062,28.809,44.922,-22.949,0
1539627906.282,27.832,38.574,41.504,49.805,22.949,0
1539627906.285,32.227,33.203,41.504,39.062,64.941,0
1539627906.289,34.180,35.156,14.648,35.156,32.715,0
1539627906.293,24.902,39.062,23.438,38.574,-5.371,0
1539627906.297,20.020,29.785,44.922,52.246,-3.418,0
1539627906.301,29.297,32.227,36.621,57.617,86.914,0
1539627906.305,40.527,39.062,30.273,48.340,90.820,0
1539627906.309,10.254,36.621,37.109,42.480,21.484,0
1539627906.313,3.906,36.621,41.016,36.621,13.184,0
1539627906.317,24.414,39.551,41.504,20.508,-11.230,0
1539627906.321,22.461,36.621,40.039,29.297,-16.602,0
1539627906.324,30.273,40.039,41.504,43.945,73.242,0
1539627906.328,13.184,38.574,40.527,62.012,94.727,0
1539627906.332,13.672,35.156,41.504,58.594,25.391,0
1539627906.336,19.531,39.062,33.203,44.922,12.207,0
1539627906.340,9.277,38.574,24.414,48.340,34.180,0
1539627906.344,20.996,30.273,33.203,37.598,29.297,0
1539627906.348,27.832,29.785,41.504,47.852,1.465,0
1539627906.352,25.879,25.879,44.922,34.668,24.414,0
1539627906.356,37.598,25.391,48.828,31.250,13.672,0
1539627906.360,41.992,41.992,39.551,62.500,7.812,0
1539627906.364,28.320,36.133,29.785,76.172,60.059,0
1539627906.367,7.324,26.855,29.297,51.270,71.289,0
1539627906.371,11.230,38.574,33.691,19.043,6.348,0
1539627906.375,28.809,52.734,39.551,18.066,-7.324,0
1539627906.379,20.996,52.246,37.598,31.250,21.973,0
1539627906.383,0.977,46.387,31.250,44.434,-5.859,0
1539627906.387,16.602,49.316,32.715,40.039,20.996,0
1539627906.391,39.062,53.223,36.133,26.855,29.297,0
1539627906.395,41.504,41.504,36.621,33.691,31.250,0
1539627906.399,38.574,36.621,32.227,32.227,86.426,0
1539627906.403,34.180,34.180,22.461,18.555,48.340,0
1539627906.407,51.758,24.414,26.367,23.438,16.602,0
1539627906.410,48.340,35.645,39.551,27.344,-18.555,0
1539627906.414,34.180,44.434,40.039,26.367,-8.301,0
1539627906.418,29.785,39.551,34.668,26.367,81.543,0
1539627906.422,38.086,40.039,36.133,42.480,80.078,0
1539627906.426,46.875,39.551,33.203,61.035,62.012,0
1539627906.430,35.645,31.738,27.832,73.242,46.387,0
1539627906.434,36.133,35.645,39.062,78.125,72.754,0
1539627906.438,33.691,38.574,46.875,59.570,91.309,0
1539627906.442,30.762,37.109,39.062,40.039,76.172,0
1539627906.446,41.992,39.551,44.434,58.594,78.125,0
1539627906.449,39.551,35.156,45.898,56.641,48.828,0
1539627906.453,24.902,36.133,39.551,47.852,14.160,0
1539627906.457,24.414,41.504,40.039,28.809,17.578,0
1539627906.461,45.898,44.922,43.945,7.812,20.996,0
1539627906.465,49.316,45.898,43.945,31.738,45.410,0
1539627906.469,33.203,32.715,39.062,39.062,59.082,0
1539627906.473,18.555,20.020,37.598,54.199,8.301,0
1539627906.477,7.324,22.461,31.250,60.547,19.043,0
1539627906.481,19.043,28.809,29.785,39.062,20.508,0
1539627906.485,22.461,35.156,36.621,28.320,47.852,0
1539627906.489,26.855,34.668,35.156,33.203,45.410,0
1539627906.492,37.598,35.645,38.574,39.062,-24.902,0
1539627906.496,37.109,38.086,46.875,47.852,23.926,0
1539627906.500,28.809,30.273,41.992,53.223,32.715,0
1539627906.504,20.508,31.250,29.785,27.832,0.977,0
1539627906.508,29.785,36.621,21.973,30.762,-20.020,0
1539627906.512,32.227,27.344,22.461,41.016,-0.977,0
1539627906.516,24.414,30.273,28.320,41.016,28.809,0
1539627906.520,20.020,39.551,42.480,34.668,55.664,0
1539627906.524,21.484,39.062,47.363,24.902,77.148,0
1539627906.528,32.715,39.551,36.621,42.480,21.484,0
1539627906.532,41.992,37.109,34.668,44.922,-2.441,0
1539627906.535,19.531,29.785,41.504,34.668,-10.254,0
1539627906.539,13.672,25.879,50.781,40.527,24.414,0
1539627906.543,41.992,28.809,51.758,47.363,17.578,0
1539627906.547,16.602,31.250,35.645,51.270,-6.348,0
1539627906.551,-2.441,31.250,33.203,55.664,27.344,0
1539627906.555,14.648,27.344,33.203,42.480,36.133,0
1539627906.559,18.066,34.180,29.785,25.391,65.430,0
1539627906.563,18.555,41.504,32.227,26.855,74.707,0
1539627906.567,29.297,41.504,32.227,36.621,16.602,0
1539627906.571,30.273,38.574,32.715,11.230,23.438,0
1539627906.574,18.066,35.156,33.691,9.766,72.754,0
1539627906.578,15.625,38.086,29.297,22.461,25.391,0
1539627906.582,19.043,37.598,29.785,37.109,13.672,0
1539627906.586,29.297,39.062,35.645,53.223,44.434,0
1539627906.590,38.574,41.016,36.621,46.387,56.641,0
1539627906.594,37.109,30.762,35.645,37.109,52.734,0
1539627906.598,28.320,30.273,34.180,15.625,23.438,0
1539627906.602,25.879,39.062,34.668,4.395,52.734,0
1539627906.606,17.090,41.016,45.410,17.578,51.758,0
1539627906.610,12.207,36.133,34.180,17.090,76.660,0
1539627906.614,44.434,33.203,23.926,26.367,108.398,0
1539627906.617,41.992,36.133,43.457,48.340,54.199,0
1539627906.621,19.531,32.715,36.621,42.480,-14.160,0
1539627906.625,39.551,35.156,25.879,50.293,4.395,0
1539627906.629,35.156,42.480,31.738,39.062,37.109,0
1539627906.633,11.230,30.762,32.227,7.324,25.879,0
1539627906.637,-0.488,30.273,33.203,4.395,62.988,0
1539627906.641,-2.441,42.969,32.227,-4.883,73.242,0
1539627906.645,-23.438,43.457,20.508,-0.977,50.781,0
1539627906.649,-22.949,32.715,12.207,-6.348,62.500,0
1539627906.653,-17.578,34.668,17.578,-17.578,71.289,0
1539627906.657,-25.879,45.410,20.020,5.371,64.453,0
1539627906.660,-13.672,44.434,17.090,-6.836,39.551,0
1539627906.664,-0.977,32.715,17.578,-17.090,25.391,0
1539627906.668,0.000,33.691,16.113,-20.020,53.223,0
1539627906.672,5.859,40.039,14.648,-20.508,14.648,0
1539627906.676,9.277,37.598,18.066,0.977,-54.688,0
1539627906.680,4.395,36.621,20.020,0.488,14.648,0
1539627906.684,15.625,37.109,23.926,7.812,85.449,0
1539627906.688,25.391,40.039,30.762,13.184,88.867,0
1539627906.692,-3.906,36.621,24.414,4.883,88.379,0
1539627906.696,-15.625,36.133,14.160,5.371,60.059,0
1539627906.699,-8.301,36.621,14.648,7.812,42.480,0
1539627906.703,-6.836,36.133,29.785,20.020,52.734,0
1539627906.707,-1.953,32.227,30.762,23.438,50.781,0
1539627906.711,13.672,24.902,33.203,19.531,20.020,0
1539627906.715,21.973,40.039,37.598,27.344,-22.949,0
1539627906.719,7.324,43.457,25.391,24.902,-7.812,0
1539627906.723,7.812,35.645,22.461,17.578,-7.324,0
1539627906.727,12.207,35.645,26.367,11.719,-44.434,0
1539627906.731,3.906,36.133,33.691,23.926,23.926,0
1539627906.735,8.789,36.133,28.320,41.992,55.664,0
1539627906.739,11.719,37.598,24.414,22.949,92.773,0
1539627906.742,-1.953,40.527,34.668,7.324,75.684,0
1539627906.746,-0.488,32.715,44.434,12.695,32.227,0
1539627906.750,17.578,39.062,38.086,33.691,34.180,0
1539627906.754,35.156,44.434,27.832,41.504,14.160,0
1539627906.758,29.297,40.039,24.414,24.414,23.438,0
1539627906.762,-1.465,38.086,26.855,12.695,-36.133,0
1539627906.766,-6.348,40.527,38.574,20.996,-19.531,0
1539627906.770,5.371,40.039,40.039,22.461,36.621,0
1539627906.774,3.418,28.809,44.922,25.879,9.277,0
1539627906.778,3.418,28.320,49.805,40.527,-4.395,0
1539627906.782,3.906,34.180,44.922,22.461,7.324,0
1539627906.785,-4.883,30.273,40.527,7.812,28.320,0
1539627906.789,-10.254,26.367,33.691,19.043,91.309,0
1539627906.793,-5.371,22.461,27.344,18.066,76.660,0
1539627906.797,3.418,25.391,23.926,12.207,56.152,0
1539627906.801,-0.977,30.273,30.762,26.367,19.531,0
1539627906.805,-8.789,27.344,42.480,43.945,-20.996,0
1539627906.809,10.742,33.691,46.875,34.668,17.090,0
1539627906.813,8.301,36.621,42.480,25.391,39.551,0
1539627906.817,0.977,34.668,39.551,22.461,34.180,0
1539627906.821,-9.766,31.738,38.086,13.184,52.734,0
1539627906.824,-17.090,29.785,30.762,14.160,36.621,0
1539627906.828,-6.348,22.461,30.762,16.602,3.906,0
1539627906.832,1.953,21.484,33.691,6.348,14.648,0
1539627906.836,-9.277,37.598,28.320,9.766,20.508,0
1539627906.840,-12.695,44.434,35.645,3.418,24.902,0
1539627906.844,-27.832,37.109,47.363,0.488,37.109,0
1539627906.848,-27.832,37.598,38.086,20.508,45.898,0
1539627906.852,-8.789,42.480,26.367,5.371,28.320,0
1539627906.856,-14.648,46.875,25.391,-29.785,42.480,0
1539627906.860,-21.973,54.688,27.344,-30.273,54.199,0
1539627906.864,-35.645,50.293,21.973,-29.297,47.363,0
1539627906.867,-47.852,51.758,19.043,-29.785,64.453,0
1539627906.871,-53.711,51.758,27.344,-30.762,37.598,0
1539627906.875,-44.434,47.363,23.438,-35.645,-11.230,0
1539627906.879,-55.176,51.270,18.066,-32.227,-1.953,0
1539627906.883,-78.613,43.457,12.695,-50.293,37.598,0
1539627906.887,-83.496,45.410,11.719,-62.012,5.859,0
1539627906.891,-101.562,46.387,17.578,-80.078,-18.066,0
1539627906.895,-104.980,43.457,22.461,-98.633,-10.254,0
1539627906.899,-115.723,47.363,21.484,-98.633,33.691,0
1539627906.903,-137.207,49.805,17.090,-97.656,85.938,0
1539627906.907,-123.047,52.246,12.207,-95.215,44.434,0
1539627906.910,-119.629,59.082,9.277,-94.727,61.523,0
1539627906.914,-111.328,65.918,13.184,-105.469,63.965,0
1539627906.918,-90.332,56.641,18.066,-108.887,48.340,0
1539627906.922,-91.309,41.992,13.184,-93.750,43.457,0
1539627906.926,-102.539,40.039,5.371,-66.406,18.066,0
1539627906.930,-90.332,51.270,2.930,-64.941,0.000,0
1539627906.934,-82.031,47.852,0.000,-90.332,7.812,0
1539627906.938,-71.777,51.758,2.441,-78.613,4.883,0
1539627906.942,-53.223,45.410,9.766,-53.711,65.430,0
1539627906.946,-37.109,29.785,10.742,-27.832,104.492,0
1539627906.949,-32.715,27.832,9.766,-4.395,30.273,0
1539627906.953,-38.574,26.367,4.395,4.883,17.578,0
1539627906.957,-27.344,21.973,11.719,12.207,62.012,0
1539627906.961,-11.230,14.648,24.414,23.926,84.961,0
1539627906.965,-0.488,12.207,29.297,38.574,75.684,0
1539627906.969,6.348,21.973,26.367,44.922,54.688,0
1539627906.973,20.996,33.691,23.926,45.410,69.336,0
1539627906.977,36.133,35.645,26.367,59.570,6.348,0
1539627906.981,35.645,31.250,26.855,67.383,40.527,0
1539627906.985,44.434,25.879,27.344,56.152,83.008,0
1539627906.989,55.176,26.855,30.762,57.129,20.020,0
1539627906.992,61.035,23.926,30.762,74.707,28.809,0
1539627906.996,77.148,17.090,31.738,98.145,30.273,0
1539627907.000,85.938,26.855,41.992,113.770,-4.883,0
1539627907.004,72.754,34.180,39.062,91.797,0.000,0
1539627907.008,77.637,25.879,28.809,76.172,34.180,0
1539627907.012,88.867,23.438,26.855,94.238,14.160,0
1539627907.016,80.078,25.391,30.762,108.887,-15.625,0
1539627907.020,77.148,20.996,41.504,106.445,27.832,0
1539627907.024,83.008,27.832,41.992,90.332,55.664,0
1539627907.028,85.449,32.715,35.645,83.008,34.180,0
1539627907.032,91.797,31.250,35.645,83.008,3.418,0
1539627907.035,84.961,26.367,37.109,76.660,58.594,0
1539627907.039,76.660,24.414,41.504,83.984,76.172,0
1539627907.043,70.312,28.320,43.945,87.402,39.551,0
1539627907.047,66.406,32.715,44.922,88.379,60.059,0
1539627907.051,72.754,30.273,36.621,111.328,45.410,0
1539627907.055,76.172,26.855,30.273,112.305,68.359,0
1539627907.059,85.449,25.879,40.527,112.793,94.238,0
1539627907.063,81.543,26.367,46.875,124.512,41.016,0
1539627907.067,73.730,27.832,41.504,99.609,-20.020,0
1539627907.071,69.336,20.020,48.828,89.844,-17.090,0
1539627907.074,62.012,24.414,46.387,102.539,8.301,0
1539627907.078,68.359,30.762,31.250,86.914,31.250,0
1539627907.082,77.148,31.250,36.133,67.871,18.066,0
1539627907.086,71.777,35.645,44.922,65.918,-49.805,0
1539627907.090,71.777,33.691,39.062,56.641,-4.395,0
1539627907.094,77.148,29.785,39.551,56.641,61.035,0
1539627907.098,71.289,28.809,43.457,70.801,6.348,0
1539627907.102,67.383,33.203,40.527,69.336,0.488,0
1539627907.106,71.289,36.621,39.551,58.105,11.230,0
1539627907.110,88.867,29.297,45.898,62.500,31.250,0
1539627907.114,80.078,26.367,52.734,78.613,48.340,0
1539627907.117,63.965,33.691,45.898,73.242,2.930,0
1539627907.121,47.363,38.086,33.691,49.805,4.883,0
1539627907.125,34.180,37.598,28.320,52.734,44.434,0
1539627907.129,43.457,40.527,31.250,77.148,62.988,0
1539627907.133,40.527,47.363,32.715,77.637,15.625,0
1539627907.137,36.621,47.363,29.785,84.961,-0.488,0
1539627907.141,36.621,43.457,29.297,95.703,38.086,0
1539627907.145,36.133,43.945,28.809,78.125,16.602,0
1539627907.149,63.965,45.898,29.297,58.594,-7.324,0
1539627907.153,71.777,36.133,31.250,53.223,57.129,0
1539627907.157,56.152,29.785,28.809,56.152,56.152,0
1539627907.160,54.199,30.273,28.320,52.246,33.691,0
1539627907.164,59.082,36.133,32.715,48.828,-18.066,0
1539627907.168,65.918,48.340,28.320,43.945,-8.301,0
1539627907.172,54.688,42.480,29.785,42.969,41.992,0
1539627907.176,44.922,36.133,35.645,57.129,52.734,0
1539627907.180,51.758,38.086,31.738,63.477,-19.531,0
1539627907.184,53.711,40.527,34.668,50.781,-21.484,0
1539627907.188,42.969,47.363,39.062,49.316,33.203,0
1539627907.192,34.668,43.945,38.086,58.594,6.348,0
1539627907.196,32.715,35.645,29.297,49.805,57.617,0
1539627907.199,34.180,29.297,26.855,49.316,76.660,0
1539627907.203,38.086,33.691,35.645,64.453,47.363,0
1539627907.207,41.504,40.039,37.598,61.523,22.949,0
1539627907.211,32.715,36.621,32.715,45.898,30.273,0
1539627907.215,32.227,40.039,27.344,42.480,18.066,2
1539627907.219,31.738,40.039,21.973,43.945,4.395,0
1539627907.223,25.391,41.992,27.344,56.641,114.258,0
1539627907.227,31.738,47.363,38.574,62.500,82.520,0
1539627907.231,34.180,41.016,38.086,47.363,38.574,0
1539627907.235,37.109,42.969,25.879,43.457,54.688,0
1539627907.239,52.246,48.828,24.414,55.176,18.555,0
1539627907.242,53.711,40.039,30.273,61.035,30.273,0
1539627907.246,32.715,26.367,37.109,50.293,20.020,0
1539627907.250,14.160,26.367,45.410,55.176,35.156,0
1539627907.254,25.879,35.645,43.457,55.664,11.719,0
1539627907.258,31.738,44.434,44.434,55.664,13.184,0
1539627907.262,29.785,45.410,48.340,40.527,37.598,0
1539627907.266,40.527,41.504,42.480,28.320,32.715,0
1539627907.270,33.203,37.598,32.227,28.809,50.293,0
1539627907.274,31.738,26.855,34.668,33.691,36.621,0
1539627907.278,33.203,22.461,38.574,30.762,34.668,0
1539627907.282,24.414,32.227,44.434,30.762,36.621,0
1539627907.285,30.273,44.922,49.805,41.504,28.809,0
1539627907.289,31.738,45.410,39.551,36.133,46.387,0
1539627907.293,12.207,43.457,28.809,40.527,31.738,0
1539627907.297,1.465,41.016,26.367,47.363,-30.273,0
1539627907.301,23.926,37.109,34.180,50.781,6.348,0
1539627907.305,41.016,41.504,38.086,45.898,33.691,0
1539627907.309,23.438,32.227,29.297,34.180,21.484,0
1539627907.313,32.227,32.227,31.738,42.480,60.547,0
1539627907.317,58.105,43.457,30.273,60.547,91.309,0
1539627907.321,51.270,34.668,30.273,42.480,75.684,0
1539627907.324,16.113,27.344,42.480,31.250,41.016,0
1539627907.328,11.719,24.414,48.340,33.691,41.504,0
1539627907.332,17.578,28.809,42.969,23.926,10.742,0
1539627907.336,12.207,38.086,38.086,28.320,-9.277,0
1539627907.340,26.367,38.574,42.969,35.156,1.465,0
1539627907.344,35.645,39.062,43.945,35.645,-22.949,0
1539627907.348,27.832,42.969,47.852,49.805,5.859,0
1539627907.352,14.648,35.645,44.922,44.434,43.945,0
1539627907.356,23.926,36.133,31.250,38.574,23.438,0
1539627907.360,32.715,33.691,33.203,29.297,34.180,0
1539627907.364,19.043,19.043,43.457,24.414,-6.348,0
1539627907.367,7.324,18.555,47.852,26.367,-8.301,0
1539627907.371,1.465,18.066,35.645,17.578,88.379,0
1539627907.375,10.254,11.230,34.180,27.344,67.871,0
1539627907.379,21.484,15.625,41.016,32.715,23.438,0
1539627907.383,24.902,30.762,37.109,33.203,61.523,0
1539627907.387,36.621,45.410,26.367,33.203,72.754,0
1539627907.391,22.461,44.434,22.949,40.527,28.320,0
1539627907.395,3.906,35.156,35.645,30.273,21.973,0
1539627907.399,16.113,21.973,41.504,24.414,23.438,0
1539627907.403,18.066,18.066,42.480,38.574,31.250,0
1539627907.407,4.395,30.762,41.992,36.621,66.406,0
1539627907.410,13.672,35.156,36.621,38.574,45.410,0
1539627907.414,14.648,33.203,39.062,35.645,2.441,0
1539627907.418,5.859,37.598,39.062,14.648,10.742,0
1539627907.422,18.066,35.645,34.180,24.414,4.395,0
1539627907.426,22.949,33.691,31.738,29.785,-18.066,0
1539627907.430,19.531,34.668,32.715,24.902,-4.395,0
1539627907.434,39.551,27.344,35.156,29.785,16.113,0
1539627907.438,50.293,22.949,39.062,40.039,36.621,0
1539627907.442,20.508,32.715,39.062,37.598,35.645,0
1539627907.446,9.277,37.109,29.297,39.062,36.133,0
1539627907.449,10.254,35.156,32.227,47.363,25.879,0
1539627907.453,18.555,35.156,38.574,37.109,65.918,0
1539627907.457,17.090,38.086,35.645,20.020,116.211,0
1539627907.461,13.672,44.434,37.598,26.367,63.965,0
1539627907.465,24.902,41.016,39.062,39.062,19.531,0
1539627907.469,27.344,27.344,26.855,41.992,28.809,0
1539627907.473,14.160,23.926,30.762,46.875,-0.977,0
1539627907.477,12.695,23.438,40.039,43.945,-11.719,0
1539627907.481,12.695,30.273,30.762,45.898,20.996,0
1539627907.485,6.348,29.297,27.344,29.785,86.914,0
1539627907.489,20.508,17.578,30.762,20.020,71.777,0
1539627907.492,29.297,30.273,34.668,28.809,16.113,0
1539627907.496,21.973,38.574,32.715,39.062,14.160,0
1539627907.500,24.414,43.945,23.438,47.852,45.410,0
1539627907.504,30.762,44.922,31.738,35.156,12.695,0
1539627907.508,25.879,36.621,39.551,23.438,-23.926,0
1539627907.512,14.648,36.621,40.039,17.578,21.973,0
1539627907.516,13.672,33.691,40.527,39.551,37.109,0
1539627907.520,40.527,33.691,41.016,72.266,5.859,0
1539627907.524,34.668,37.598,43.457,64.453,-11.719,0
1539627907.528,25.879,38.574,41.016,24.414,65.430,0
1539627907.532,49.805,52.246,38.574,20.508,73.730,0
1539627907.535,43.457,53.711,35.156,41.992,9.766,0
1539627907.539,7.812,37.109,24.902,27.832,30.273,0
1539627907.543,-8.789,32.715,20.020,-3.906,99.121,0
1539627907.547,6.348,38.086,25.879,-0.488,49.805,0
1539627907.551,3.906,37.109,32.715,13.184,12.207,0
1539627907.555,-11.719,31.250,28.809,13.184,52.734,0
1539627907.559,-5.371,26.367,28.320,10.254,38.574,0
1539627907.563,11.230,33.203,28.320,10.254,5.859,0
1539627907.567,12.695,49.805,23.926,27.344,37.598,0
1539627907.571,12.695,41.992,23.926,23.926,32.227,0
1539627907.574,13.184,28.320,22.461,24.902,-5.371,0
1539627907.578,13.184,37.598,23.438,30.762,48.828,0
1539627907.582,11.230,36.133,30.762,31.250,99.609,0
1539627907.586,7.324,22.949,38.086,37.598,84.473,0
1539627907.590,8.789,26.855,41.504,39.062,39.062,0
1539627907.594,-2.441,38.086,38.574,45.898,42.480,0
1539627907.598,6.836,44.434,32.227,48.340,55.664,0
1539627907.602,26.367,45.898,31.250,47.852,28.809,0
1539627907.606,34.180,42.480,34.180,33.691,27.832,0
1539627907.610,25.879,36.621,28.809,7.812,52.734,0
1539627907.614,3.418,30.762,23.438,0.488,58.594,0
1539627907.617,15.137,31.738,32.227,22.949,2.930,0
1539627907.621,26.367,38.086,34.668,36.621,13.184,0
1539627907.625,26.855,33.691,34.668,41.992,41.504,0
1539627907.629,30.273,31.250,35.645,36.621,6.348,0
1539627907.633,27.832,43.945,33.203,31.738,-7.324,0
1539627907.637,23.438,40.039,31.250,32.227,56.152,0
1539627907.641,15.625,31.738,33.691,37.598,127.441,0
1539627907.645,18.066,38.574,27.832,48.340,88.867,0
1539627907.649,18.066,43.457,23.926,38.086,26.855,0
1539627907.653,13.184,41.992,28.809,19.531,7.812,0
1539627907.657,14.160,34.180,34.668,34.668,27.832,0
1539627907.660,19.043,38.574,38.574,49.805,45.898,0
1539627907.664,28.320,46.387,42.480,61.035,46.875,0
1539627907.668,27.344,31.738,42.480,59.570,-7.324,0
1539627907.672,13.184,28.320,37.598,55.664,-28.320,0
1539627907.676,7.812,44.434,36.621,44.434,33.203,0
1539627907.680,9.277,43.457,28.809,3.906,19.043,0
1539627907.684,7.812,43.457,28.320,-6.348,25.391,0
1539627907.688,4.883,40.527,25.879,-0.488,68.359,0
1539627907.692,0.000,33.691,25.879,0.977,62.500,0
1539627907.696,-9.277,31.738,28.809,-6.836,53.223,0
1539627907.699,-18.555,36.133,29.297,-1.465,25.879,0
1539627907.703,0.488,42.480,32.227,13.184,-13.672,0
1539627907.707,21.484,45.410,31.738,14.160,-22.461,0
1539627907.711,18.555,35.645,35.645,18.555,14.648,0
1539627907.715,7.324,31.250,36.133,27.832,44.434,0
1539627907.719,9.766,38.574,36.621,23.926,44.434,0
1539627907.723,11.719,44.922,34.668,20.020,89.844,0
1539627907.727,-9.277,42.480,29.785,0.488,73.730,0
1539627907.731,1.465,43.945,33.203,14.160,-9.766,0
1539627907.735,9.766,50.293,38.086,21.484,25.879,0
1539627907.739,-42.480,34.668,16.602,-27.832,13.672,0
1539627907.742,-41.016,74.707,39.551,-11.719,42.969,0
1539627907.746,-62.988,78.125,47.852,-62.500,68.359,0
1539627907.750,-43.457,69.824,99.609,-55.176,29.785,0
1539627907.754,24.902,113.281,190.430,44.434,1.465,0
1539627907.758,-37.109,120.117,122.559,-9.766,-10.254,0
1539627907.762,-101.074,100.098,46.875,-81.055,-9.766,0
1539627907.766,-143.066,91.797,33.691,-117.188,63.477,0
1539627907.770,-105.469,65.918,28.320,-115.234,104.492,0
1539627907.774,-145.508,22.949,-24.902,-203.125,14.648,0
1539627907.778,-273.438,82.031,-71.289,-282.715,-17.090,0
1539627907.782,-247.559,85.449,73.242,-234.375,9.766,0
1539627907.785,-172.852,120.605,449.219,-187.988,23.926,0
1539627907.789,-236.328,224.609,849.609,-253.906,80.566,0
1539627907.793,-528.320,72.266,-1000.000,-536.621,45.410,0
1539627907.797,-424.805,75.195,991.699,-462.402,10.254,0
1539627907.801,-166.504,333.984,997.559,-216.797,20.508,0
1539627907.805,-296.387,503.906,-999.512,-356.934,-12.207,0
1539627907.809,-402.832,679.688,999.512,-498.047,-5.371,0
1539627907.813,-445.312,893.555,999.512,-611.816,18.555,0
1539627907.817,-500.977,-992.188,999.512,-708.008,-20.508,0
1539627907.821,-516.602,993.652,999.512,-729.980,-52.246,0
1539627907.824,-567.383,998.535,999.512,-879.883,16.113,0
1539627907.828,-602.539,999.512,999.512,-941.895,54.199,0
1539627907.832,-674.316,999.512,999.512,-965.820,44.434,0
1539627907.836,-848.633,999.512,999.512,-972.168,15.625,0
1539627907.840,-982.422,999.512,999.512,-970.215,38.574,0
1539627907.844,-965.332,999.512,999.512,-971.191,-3.906,0
1539627907.848,-969.727,999.512,999.512,-971.191,-24.902,0
1539627907.852,-971.680,999.512,999.512,-971.191,30.762,0
1539627907.856,-971.191,999.512,999.512,-971.191,16.113,0
1539627907.860,-970.703,999.512,999.512,-970.703,0.000,0
1539627907.864,-970.703,999.512,999.512,-971.191,-52.734,0
1539627907.867,-971.191,999.512,999.512,-971.191,-43.457,0
1539627907.871,-970.703,999.512,999.512,-971.191,8.789,0
1539627907.875,-970.703,999.512,999.512,-971.191,12.207,0
1539627907.879,-971.191,999.512,999.512,-971.191,29.785,0
1539627907.883,-971.191,999.512,999.512,-971.191,21.484,0
1539627907.887,-971.191,999.512,999.512,-971.191,-3.418,0
1539627907.891,-971.191,999.512,999.512,-971.191,8.301,0
1539627907.895,-971.191,999.512,999.512,-971.191,39.062,0
1539627907.899,-971.191,999.512,999.512,-971.191,27.832,0
1539627907.903,-971.191,999.512,999.512,-971.191,34.180,0
1539627907.907,-971.191,999.512,999.512,-971.191,56.152,0
1539627907.910,-971.191,999.512,-998.535,-971.191,54.199,0
1539627907.914,-970.703,999.512,986.816,-971.191,21.973,0
1539627907.918,-971.191,999.512,-995.605,-971.191,-6.836,0
1539627907.922,-971.191,999.512,923.340,-971.191,-45.410,0
1539627907.926,-970.703,-1000.000,422.852,-971.191,-22.949,0
1539627907.930,-971.191,997.559,-165.527,-971.191,26.855,0
1539627907.934,-971.191,989.258,-654.297,-971.191,33.203,0
1539627907.938,-971.191,-992.676,-954.102,-971.191,12.207,0
1539627907.942,-971.191,799.805,-966.797,-970.703,16.113,0
1539627907.946,-971.191,345.703,-965.332,-971.191,64.453,0
1539627907.949,-971.191,36.621,-972.656,-971.191,3.418,0
1539627907.953,-971.191,-200.195,-970.703,-971.191,0.977,0
1539627907.957,-970.703,-490.234,-971.191,-971.191,26.367,0
1539627907.961,-970.703,-723.145,-971.191,-971.191,48.828,0
1539627907.965,-970.703,-909.668,-970.703,-971.191,40.039,0
1539627907.969,-970.703,-975.098,-970.703,-970.703,20.508,0
1539627907.973,-970.703,-966.309,-970.703,-970.703,-6.836,0
1539627907.977,-971.191,-971.191,-971.191,-971.191,15.625,0
1539627907.981,-970.703,-971.191,-971.191,-971.191,67.383,0
1539627907.985,-970.703,-971.191,-971.191,-970.703,31.738,0
1539627907.989,-971.191,-970.703,-971.191,-970.703,23.438,0
1539627907.992,-971.191,-971.191,-970.703,-972.656,50.293,0
1539627907.996,-971.680,-971.191,-971.191,-964.355,61.035,0
1539627908.000,-958.984,-971.191,-970.703,-970.215,26.367,0
1539627908.004,-982.910,-971.191,-970.703,-940.430,31.738,0
1539627908.008,-851.074,-971.191,-971.191,-654.297,45.410,0
1539627908.012,-433.594,-971.191,-971.191,-187.500,16.113,0
1539627908.016,-77.637,-971.191,-971.191,188.477,17.090,0
1539627908.020,14.648,-970.703,-970.703,281.738,56.641,0
1539627908.024,48.828,-970.703,-971.191,315.918,82.520,0
1539627908.028,267.090,-971.191,-971.191,566.406,56.641,0
1539627908.032,577.148,-971.191,-970.703,893.066,50.293,0
1539627908.035,881.836,-971.191,-970.703,-993.652,20.508,0
1539627908.039,-992.676,-971.191,-971.191,991.211,14.160,0
1539627908.043,991.211,-971.191,-971.191,999.023,41.504,0
1539627908.047,999.023,-970.703,-971.191,-1000.000,37.598,0
1539627908.051,999.512,-971.191,-971.191,999.512,48.828,0
1539627908.055,999.512,-971.191,-971.191,999.512,62.988,0
1539627908.059,999.512,-970.703,-971.191,999.512,28.320,0
1539627908.063,999.512,-971.191,-970.703,999.512,29.297,0
1539627908.067,999.512,-971.191,-970.703,999.512,66.895,0
1539627908.071,999.512,-971.191,-971.191,999.512,41.992,0
1539627908.074,999.512,-970.215,-971.191,999.512,41.504,0
1539627908.078,999.512,-964.844,-971.191,999.512,86.426,0
1539627908.082,999.512,-984.375,-971.191,999.512,99.609,0
1539627908.086,999.512,-864.258,-971.191,999.512,48.340,0
1539627908.090,999.512,-712.891,-971.191,999.512,39.551,0
1539627908.094,999.512,-714.844,-971.191,999.512,96.680,0
1539627908.098,999.512,-694.824,-970.703,999.512,55.664,0
1539627908.102,999.512,-648.926,-970.703,999.512,40.039,0
1539627908.106,999.512,-637.695,-971.191,999.512,62.500,0
1539627908.110,999.512,-666.016,-971.191,999.512,46.387,0
1539627908.114,999.512,-715.820,-971.191,999.512,6.348,0
1539627908.117,999.512,-774.414,-971.191,999.512,34.668,0
1539627908.121,999.512,-810.059,-971.191,999.512,54.199,0
1539627908.125,999.512,-833.008,-971.191,999.512,-17.578,0
1539627908.129,999.512,-859.863,-971.191,999.512,-5.371,0
1539627908.133,999.512,-892.578,-971.191,999.512,-34.180,0
1539627908.137,999.512,-924.316,-971.191,999.512,-71.777,0
1539627908.141,999.512,-947.266,-971.191,999.512,21.973,0
1539627908.145,999.512,-963.379,-971.191,999.512,22.461,0
1539627908.149,999.512,-971.191,-971.191,999.512,-17.090,0
1539627908.153,999.512,-970.703,-970.703,999.512,27.344,0
1539627908.157,999.512,-970.703,-971.191,999.512,31.738,0
1539627908.160,999.512,-971.191,-971.191,999.512,3.418,0
1539627908.164,999.512,-971.191,-970.703,999.512,3.906,0
1539627908.168,999.512,-971.191,-971.191,999.512,-20.996,0
1539627908.172,999.512,-971.191,-971.191,999.512,-7.324,0
1539627908.176,999.512,-971.191,-971.191,999.512,9.766,0
1539627908.180,998.047,-970.703,-970.703,999.512,-25.391,0
1539627908.184,-1000.000,-971.191,-971.191,999.512,-59.570,0
1539627908.188,992.188,-971.191,-971.191,999.512,25.879,0
1539627908.192,953.613,-970.703,-971.191,999.512,97.656,0
1539627908.196,919.922,-971.191,-971.191,995.605,36.621,0
1539627908.199,891.113,-969.238,-971.191,-994.141,53.711,0
1539627908.203,855.469,-973.145,-970.703,959.473,70.801,0
1539627908.207,825.195,-957.520,-970.703,874.023,50.293,0
1539627908.211,807.617,-910.645,-971.191,862.305,-0.977,0
1539627908.215,784.668,-884.277,-969.727,854.980,26.367,0
1539627908.219,768.555,-870.605,-971.680,845.703,69.336,0
1539627908.223,764.648,-849.609,-966.309,815.430,42.480,0
1539627908.227,743.652,-824.707,-924.316,758.301,84.473,0
1539627908.231,726.562,-802.246,-885.254,746.582,78.613,0
1539627908.235,713.867,-790.039,-860.352,735.840,103.027,0
1539627908.239,687.500,-780.273,-834.473,706.055,136.230,0
1539627908.242,663.574,-774.902,-811.523,696.777,123.047,0
1539627908.246,650.391,-773.438,-782.715,678.223,104.004,0
1539627908.250,628.906,-748.535,-766.602,660.156,54.199,0
1539627908.254,588.379,-719.238,-748.535,639.648,61.523,0
1539627908.258,570.312,-708.008,-731.445,605.957,48.340,0
1539627908.262,600.098,-680.176,-715.332,596.680,46.387,0
1539627908.266,592.285,-640.137,-695.312,602.539,29.785,0
1539627908.270,542.969,-626.953,-680.176,571.777,14.648,0
1539627908.274,507.812,-630.859,-661.133,562.500,95.215,0
1539627908.278,493.164,-628.906,-651.367,553.711,89.844,0
1539627908.282,489.258,-615.234,-636.719,522.949,55.176,0
1539627908.285,483.887,-606.934,-618.164,504.883,68.359,0
1539627908.289,468.750,-605.469,-606.934,476.074,64.453,0
1539627908.293,457.031,-592.285,-596.680,458.008,43.945,0
1539627908.297,455.566,-558.594,-585.449,446.289,0.977,0
1539627908.301,455.566,-521.973,-561.523,449.219,18.066,0
1539627908.305,445.312,-497.070,-541.016,450.195,46.875,0
1539627908.309,416.992,-493.652,-533.691,426.270,3.906,0
1539627908.313,397.461,-489.746,-547.363,435.547,27.344,0
1539627908.317,412.109,-472.656,-547.363,440.918,76.660,0
1539627908.321,416.016,-453.125,-519.043,430.176,57.129,0
1539627908.324,390.625,-453.613,-487.305,400.391,27.344,0
1539627908.328,375.000,-449.707,-460.938,393.066,29.297,0
1539627908.332,371.094,-427.734,-451.172,406.250,19.531,0
1539627908.336,350.098,-414.062,-452.148,374.023,52.734,0
1539627908.340,350.098,-405.273,-464.355,368.164,79.590,0
1539627908.344,358.398,-404.297,-464.844,361.816,78.125,0
1539627908.348,353.027,-395.508,-442.383,327.637,33.203,0
1539627908.352,366.211,-375.977,-425.293,334.961,3.906,0
1539627908.356,368.164,-391.602,-429.688,335.449,-17.578,0
1539627908.360,331.543,-374.023,-428.223,339.355,-2.441,0
1539627908.364,289.551,-327.637,-418.457,347.656,52.246,0
1539627908.367,274.414,-326.172,-417.969,314.453,29.785,0
1539627908.371,289.551,-317.871,-415.039,280.762,43.457,0
1539627908.375,288.086,-305.664,-405.273,303.711,31.738,0
1539627908.379,301.270,-307.617,-384.277,285.645,-19.531,0
1539627908.383,292.969,-319.824,-381.836,250.000,35.645,0
1539627908.387,270.996,-299.805,-369.141,281.738,77.637,0
1539627908.391,270.508,-278.809,-348.145,298.828,86.426,0
1539627908.395,247.559,-288.086,-350.098,234.863,55.664,0
1539627908.399,243.164,-287.598,-336.426,237.793,41.504,0
1539627908.403,242.188,-273.926,-326.660,275.391,64.453,0
1539627908.407,240.234,-259.766,-317.383,236.816,32.227,0
1539627908.410,221.680,-258.301,-317.871,221.191,41.016,0
1539627908.414,199.219,-251.953,-319.336,238.281,48.828,0
1539627908.418,185.059,-239.746,-306.152,217.773,22.949,0
1539627908.422,145.996,-236.816,-311.523,160.645,13.184,0
1539627908.426,110.352,-233.887,-326.172,117.676,20.020,0
1539627908.430,93.750,-228.027,-324.707,94.727,-22.461,0
1539627908.434,101.562,-225.098,-321.289,59.082,-8.301,0
1539627908.438,97.168,-224.609,-324.707,72.266,62.500,0
1539627908.442,66.895,-210.449,-321.289,65.918,0.977,0
1539627908.446,63.965,-202.637,-310.547,37.598,-24.902,0
1539627908.449,79.590,-215.332,-302.734,55.176,36.621,0
1539627908.453,61.035,-182.129,-287.598,77.637,41.992,0
1539627908.457,45.898,-132.812,-269.043,76.172,38.574,0
1539627908.461,29.297,-166.016,-276.367,53.711,52.734,0
1539627908.465,34.668,-183.105,-288.086,44.434,34.180,0
1539627908.469,71.289,-144.531,-288.574,64.941,52.246,0
1539627908.473,74.707,-132.812,-278.320,82.031,113.281,1
1539627908.477,55.176,-134.766,-262.695,60.547,111.328,0
1539627908.481,66.895,-160.156,-246.094,70.312,45.410,0
1539627908.485,73.730,-174.805,-236.328,80.566,10.254,0
1539627908.489,72.266,-147.461,-251.465,89.844,7.324,0
1539627908.492,82.520,-138.672,-256.836,97.168,21.973,0
1539627908.496,89.844,-143.555,-231.445,104.980,39.551,0
1539627908.500,92.285,-132.812,-200.195,151.367,33.691,0
1539627908.504,93.750,-133.789,-184.570,191.406,40.039,0
1539627908.508,126.953,-150.391,-178.223,188.965,69.336,0
1539627908.512,152.344,-162.109,-171.875,179.688,46.387,0
1539627908.516,168.457,-161.621,-183.105,188.965,0.488,0
1539627908.520,188.477,-145.020,-178.223,187.012,73.242,0
1539627908.524,193.359,-143.066,-160.156,194.824,29.297,0
1539627908.528,182.617,-152.344,-159.180,209.473,-36.621,0
1539627908.532,177.734,-142.090,-164.551,225.098,32.227,0
1539627908.535,183.105,-125.488,-152.344,245.117,27.344,0
1539627908.539,198.730,-122.559,-143.555,233.887,8.301,0
1539627908.543,217.773,-124.023,-147.949,233.887,53.711,0
1539627908.547,228.516,-135.254,-135.254,267.578,96.191,0
1539627908.551,246.582,-141.602,-122.559,264.648,101.562,0
1539627908.555,240.234,-138.184,-125.977,251.465,43.945,0
1539627908.559,215.332,-134.766,-124.023,249.512,3.418,0
1539627908.563,220.703,-135.254,-119.629,250.977,62.988,0
1539627908.567,220.703,-145.996,-116.211,250.488,53.711,0
1539627908.571,223.145,-138.184,-114.258,262.695,31.250,0
1539627908.574,235.352,-126.953,-110.352,268.066,62.988,0
1539627908.578,216.309,-130.859,-103.027,256.348,32.715,0
1539627908.582,208.008,-125.000,-101.074,259.277,9.766,0
1539627908.586,210.938,-117.676,-104.492,251.465,-25.879,0
1539627908.590,221.191,-116.211,-110.352,239.746,-25.391,0
1539627908.594,228.516,-118.652,-102.539,250.977,32.715,0
1539627908.598,220.215,-119.629,-97.168,258.301,55.176,0
1539627908.602,236.328,-115.723,-104.004,250.000,16.602,0
1539627908.606,245.117,-97.656,-90.332,265.137,-22.949,0
1539627908.610,212.402,-85.449,-84.473,257.324,41.992,0
1539627908.614,201.172,-92.773,-86.914,221.680,64.941,0
1539627908.617,209.961,-95.703,-84.961,238.770,64.941,0
1539627908.621,207.031,-94.238,-80.078,253.906,83.496,0
1539627908.625,199.219,-92.773,-83.008,220.703,41.016,0
1539627908.629,199.707,-95.703,-87.402,210.938,42.480,0
1539627908.633,199.219,-99.121,-79.102,230.469,49.805,0
1539627908.637,193.848,-104.492,-76.660,218.262,14.160,0
1539627908.641,198.730,-105.957,-74.707,197.266,60.059,0
1539627908.645,184.082,-96.680,-86.914,175.781,54.199,0
1539627908.649,187.012,-97.168,-92.773,184.570,-10.254,0
1539627908.653,195.801,-95.215,-75.684,207.520,12.207,0
1539627908.657,186.035,-97.656,-62.988,203.125,23.438,0
1539627908.660,193.359,-84.473,-65.918,192.871,29.785,0
1539627908.664,190.430,-64.941,-73.730,192.383,57.129,0
1539627908.668,208.496,-68.848,-62.500,232.910,15.625,0
1539627908.672,195.801,-61.523,-57.129,220.703,35.156,0
1539627908.676,168.457,-45.410,-70.801,199.707,66.406,0
1539627908.680,153.809,-52.246,-79.102,208.984,57.129,0
1539627908.684,130.859,-68.848,-71.289,197.266,84.961,0
1539627908.688,141.602,-72.266,-71.777,197.754,80.078,0
1539627908.692,150.391,-64.941,-80.078,161.621,72.754,0
1539627908.696,148.926,-70.801,-82.031,146.973,68.359,0
1539627908.699,149.414,-69.824,-78.125,162.109,24.902,0
1539627908.703,156.250,-55.664,-76.660,162.598,8.301,0
1539627908.707,167.969,-65.430,-77.148,162.598,-10.742,0
1539627908.711,162.598,-64.453,-80.078,155.273,51.758,0
1539627908.715,150.391,-45.898,-72.754,151.367,68.359,0
1539627908.719,141.602,-48.828,-68.848,152.344,58.105,0
1539627908.723,132.324,-50.781,-64.941,155.273,35.645,0
1539627908.727,132.324,-49.316,-55.176,156.738,-15.137,0
1539627908.731,125.488,-56.152,-55.176,170.410,-41.504,0
1539627908.735,132.812,-57.617,-55.664,178.223,-61.523,0
1539627908.739,170.898,-41.016,-56.641,159.180,20.020,0
1539627908.742,163.086,-34.180,-59.570,140.625,78.613,0
1539627908.746,127.441,-41.504,-58.105,150.391,16.113,0
1539627908.750,112.305,-46.387,-51.270,163.086,28.320,0
1539627908.754,109.863,-56.641,-57.129,160.156,57.129,0
1539627908.758,112.793,-57.129,-66.895,178.711,-11.719,0
1539627908.762,120.117,-43.457,-61.523,176.270,-24.902,0
1539627908.766,125.488,-31.738,-51.270,127.441,29.785,0
1539627908.770,122.559,-28.809,-42.480,114.258,-21.484,0
1539627908.774,125.488,-34.668,-47.852,125.488,-48.828,0
1539627908.778,125.977,-41.504,-52.734,138.184,-3.906,0
1539627908.782,112.305,-44.922,-53.223,142.578,3.418,0
1539627908.785,111.328,-39.551,-52.246,128.906,0.488,0
1539627908.789,112.793,-29.785,-47.363,125.000,35.645,0
1539627908.793,89.844,-32.715,-45.410,127.930,81.055,0
1539627908.797,86.914,-38.086,-43.945,130.859,63.477,0
1539627908.801,88.867,-33.203,-35.645,111.816,37.109,0
1539627908.805,92.285,-22.461,-31.250,112.793,84.961,0
1539627908.809,89.844,-21.973,-31.250,143.066,43.945,0
1539627908.813,100.098,-33.203,-37.109,136.719,7.324,0
1539627908.817,122.559,-38.086,-40.039,124.512,32.715,0
1539627908.821,116.211,-36.621,-34.668,128.418,32.227,0
1539627908.824,109.863,-37.109,-32.715,129.395,16.113,0
1539627908.828,110.840,-35.645,-34.668,101.562,1.465,0
1539627908.832,118.164,-33.203,-34.180,79.590,-5.859,0
1539627908.836,109.375,-30.762,-28.809,88.379,51.270,0
1539627908.840,103.027,-33.203,-31.738,93.750,102.051,0
1539627908.844,106.934,-25.391,-41.992,95.215,79.590,0
1539627908.848,108.398,-6.348,-37.109,94.238,56.641,0
1539627908.852,124.512,-3.418,-34.180,83.008,49.805,0
1539627908.856,108.887,-17.578,-31.738,88.379,20.996,0
1539627908.860,73.242,-26.855,-22.461,103.027,-18.066,0
1539627908.864,58.594,-15.137,-14.648,100.586,33.203,0
1539627908.867,64.453,-4.395,-7.812,109.375,69.336,0
1539627908.871,79.102,0.000,-12.695,113.281,58.105,0
1539627908.875,86.914,-5.859,-14.160,105.957,66.406,0
1539627908.879,78.125,-25.879,-12.207,124.023,69.336,0
1539627908.883,75.195,-21.973,-15.625,136.719,18.066,0
1539627908.887,83.984,-4.395,-4.883,115.234,-12.207,0
1539627908.891,82.031,-2.930,7.812,107.910,-16.602,0
1539627908.895,101.074,-4.883,2.930,116.211,-15.625,0
1539627908.899,104.980,0.000,1.953,117.676,26.855,0
1539627908.903,100.586,-9.277,6.836,124.512,55.176,0
1539627908.907,88.867,-23.926,-0.488,122.070,90.332,0
1539627908.910,77.637,-4.395,-1.953,106.934,84.473,0
1539627908.914,88.379,18.066,1.953,92.773,74.707,0
1539627908.918,80.078,11.719,-4.883,88.867,57.129,0
1539627908.922,83.496,8.789,-6.348,75.684,57.129,0
1539627908.926,98.633,24.414,-0.488,77.148,87.891,0
1539627908.930,98.145,22.461,-0.488,77.148,29.297,0
1539627908.934,92.285,11.719,0.488,85.938,17.090,0
1539627908.938,77.148,8.301,2.930,95.703,55.664,0
1539627908.942,82.520,13.672,6.348,92.285,11.230,0
1539627908.946,89.355,19.531,0.488,91.797,49.805,0
1539627908.949,77.148,8.301,-3.418,94.727,82.520,0
1539627908.953,78.125,5.859,-2.441,103.516,15.137,0
1539627908.957,95.703,17.578,2.441,106.934,1.465,0
1539627908.961,101.074,14.648,2.930,100.586,55.664,0
1539627908.965,93.750,9.766,2.441,83.984,21.484,0
1539627908.969,81.543,0.977,0.488,80.078,4.395,0
1539627908.973,83.008,5.859,1.953,81.543,-21.973,0
1539627908.977,86.426,17.090,6.348,98.145,-37.109,0
1539627908.981,86.426,19.043,13.184,103.516,48.828,0
1539627908.985,102.051,23.926,20.508,92.773,73.242,0
1539627908.989,101.562,19.531,16.113,78.125,66.406,0
1539627908.992,74.707,15.625,9.277,84.961,73.730,0
1539627908.996,67.871,13.672,8.301,105.469,40.527,0
1539627909.000,91.309,16.113,15.137,119.629,50.293,0
1539627909.004,76.660,19.043,15.137,111.816,59.570,0
1539627909.008,48.340,12.207,10.254,77.637,82.031,0
1539627909.012,73.730,3.418,12.695,77.637,93.262,0
1539627909.016,83.496,7.812,6.348,92.773,64.941,0
1539627909.020,78.125,17.578,-2.930,74.707,45.410,0
1539627909.024,83.984,22.949,14.648,65.430,14.160,0
1539627909.028,63.965,20.508,14.160,61.035,25.879,0
1539627909.032,50.293,15.625,10.742,43.457,39.062,0
1539627909.035,50.781,20.020,20.996,45.898,-1.953,0
1539627909.039,50.781,27.832,2.441,62.012,68.359,0
1539627909.043,74.707,18.066,-1.465,68.848,63.477,0
1539627909.047,80.566,6.348,16.113,80.566,-4.395,0
1539627909.051,89.355,19.531,23.926,90.820,17.578,0
1539627909.055,73.242,27.832,28.320,83.008,-46.387,0
1539627909.059,13.184,27.344,23.438,66.406,-69.336,0
1539627909.063,35.156,18.555,19.531,63.965,13.184,0
1539627909.067,45.898,7.812,18.066,61.035,48.828,0
1539627909.071,31.738,17.090,22.461,64.453,11.230,0
1539627909.074,40.527,18.066,30.273,69.336,15.137,0
1539627909.078,48.828,21.973,18.555,68.848,61.523,0
1539627909.082,59.570,27.344,14.648,65.918,46.875,0
1539627909.086,56.641,21.484,26.855,58.594,68.848,0
1539627909.090,55.664,21.484,38.086,75.684,55.176,0
1539627909.094,67.871,23.926,49.316,82.031,0.488,0
1539627909.098,66.895,41.992,40.039,64.453,20.020,0
1539627909.102,59.082,45.410,31.738,82.031,23.926,0
1539627909.106,59.570,39.551,36.621,75.684,-16.113,0
1539627909.110,58.105,35.645,33.203,59.082,-3.906,0
1539627909.114,72.266,15.137,31.738,87.402,26.855,0
1539627909.117,64.941,8.789,44.922,73.242,17.578,0
1539627909.121,42.480,29.785,40.039,46.387,31.738,0
1539627909.125,46.387,45.898,27.832,50.293,66.895,0
1539627909.129,41.016,38.574,28.320,56.641,48.828,0
1539627909.133,41.992,32.227,30.762,53.711,44.434,0
1539627909.137,72.266,41.016,33.203,57.129,53.711,0
1539627909.141,80.078,33.691,38.086,83.496,17.578,0
1539627909.145,60.059,28.320,37.598,93.262,66.895,0
1539627909.149,50.781,39.551,34.180,64.941,34.668,0
1539627909.153,35.645,38.086,35.645,52.734,-24.902,0
1539627909.157,33.203,23.438,38.086,53.223,21.973,0
1539627909.160,33.691,24.902,27.832,66.406,-9.277,0
1539627909.164,33.203,39.551,38.574,80.078,-18.066,0
1539627909.168,50.293,41.016,49.316,75.195,44.434,0
1539627909.172,66.895,42.969,45.410,69.824,3.906,0
1539627909.176,64.453,45.898,52.246,82.031,23.438,0
1539627909.180,57.617,41.992,61.035,100.586,90.332,0
1539627909.184,46.387,30.273,49.805,86.914,-3.418,0
1539627909.188,69.336,30.762,33.691,71.289,-14.160,0
1539627909.192,80.566,48.340,40.527,56.641,30.762,0
1539627909.196,66.406,42.969,42.480,49.316,10.254,0
1539627909.199,76.172,37.598,39.551,52.246,33.203,0
1539627909.203,52.734,39.062,28.809,46.875,60.059,0
1539627909.207,32.227,21.484,21.973,48.828,56.641,0
1539627909.211,52.734,23.926,41.016,64.941,69.336,0
1539627909.215,53.223,44.922,51.758,69.336,34.668,0
1539627909.219,61.523,46.875,42.969,53.711,-3.906,0
1539627909.223,57.617,28.809,39.062,57.129,89.844,0
1539627909.227,45.410,20.996,37.598,61.035,58.105,0
1539627909.231,35.645,22.949,39.551,66.895,17.090,0
1539627909.235,34.180,30.273,39.551,71.289,19.043,0
1539627909.239,34.668,36.133,35.156,68.848,25.391,0
1539627909.242,41.992,36.133,39.551,61.035,57.129,0
1539627909.246,36.621,41.504,60.059,62.012,83.496,0
1539627909.250,48.828,40.039,62.500,76.172,27.832,0
1539627909.254,58.594,37.109,43.457,60.547,0.977,0
1539627909.258,39.551,30.273,35.645,51.270,32.715,0
1539627909.262,38.574,21.484,41.992,75.684,-19.531,0
1539627909.266,44.922,18.555,51.758,88.867,7.324,0
1539627909.270,47.852,33.203,56.152,87.891,83.984,0
1539627909.274,73.242,39.551,51.270,80.566,28.320,0
1539627909.278,77.637,26.367,46.875,74.707,11.230,0
1539627909.282,55.176,24.902,47.852,53.223,56.641,0
1539627909.285,37.109,30.762,49.805,56.641,56.641,0
1539627909.289,29.297,37.598,47.363,83.008,46.387,0
1539627909.293,38.574,40.527,41.016,81.543,54.199,0
1539627909.297,50.293,40.039,45.898,50.781,16.602,0
1539627909.301,69.824,43.457,46.387,24.414,48.340,0
1539627909.305,72.266,53.223,49.805,45.898,76.660,0
1539627909.309,82.520,56.641,55.176,66.895,51.270,0
1539627909.313,94.727,53.711,36.621,73.730,77.637,0
1539627909.317,91.797,46.387,34.668,83.984,126.465,0
1539627909.321,58.105,38.086,60.547,66.406,75.684,0
1539627909.324,31.250,36.621,70.312,59.082,1.953,0
1539627909.328,29.297,49.805,62.500,79.102,51.270,0
1539627909.332,28.320,50.781,61.035,73.242,28.320,0
1539627909.336,35.645,40.039,62.012,62.988,-4.883,0
1539627909.340,52.734,41.504,65.918,74.219,-5.371,0
1539627909.344,70.801,46.387,70.312,80.078,-17.090,0
1539627909.348,60.059,45.898,66.406,72.754,14.160,0
1539627909.352,48.828,45.898,60.547,79.102,59.082,0
1539627909.356,44.922,51.758,63.965,92.773,39.062,0
1539627909.360,39.551,44.922,68.848,100.098,5.859,0
1539627909.364,47.363,25.391,67.383,88.379,-8.789,0
1539627909.367,49.316,36.621,58.594,52.734,-31.738,0
1539627909.371,50.293,58.594,51.758,42.480,-14.160,0
1539627909.375,55.664,56.641,47.363,55.664,42.969,0
1539627909.379,60.547,42.480,42.480,47.363,61.035,0
1539627909.383,78.613,40.527,51.270,49.316,29.297,0
1539627909.387,81.055,33.203,65.430,70.312,33.691,0
1539627909.391,51.758,25.879,59.570,66.406,12.695,0
1539627909.395,29.785,46.387,55.664,52.246,-9.277,0
1539627909.399,28.320,55.664,62.500,42.969,-13.672,0
1539627909.403,49.316,53.223,57.617,61.035,-29.785,0
1539627909.407,75.684,54.688,53.711,83.984,28.809,0
1539627909.410,69.824,51.270,59.570,72.266,74.707,0
1539627909.414,61.035,46.875,57.617,62.012,29.297,0
1539627909.418,64.941,46.875,55.176,58.594,18.555,0
1539627909.422,62.988,46.387,53.223,74.707,66.406,0
1539627909.426,72.754,45.898,54.688,95.215,66.895,0
1539627909.430,55.664,51.270,56.641,72.266,12.695,0
1539627909.434,51.270,42.480,59.082,55.664,32.715,0
1539627909.438,67.383,30.762,67.383,75.684,55.664,0
1539627909.442,53.223,36.621,62.500,88.867,78.125,0
1539627909.446,50.293,36.621,44.434,65.430,97.168,0
1539627909.449,38.086,41.992,46.875,56.641,117.676,0
1539627909.453,22.461,52.734,61.523,64.941,60.059,0
1539627909.457,22.949,52.734,73.242,58.105,41.504,0
1539627909.461,39.551,46.387,65.918,41.992,56.641,0
1539627909.465,61.035,23.926,56.641,35.645,76.172,0
1539627909.469,50.781,23.438,60.059,52.734,10.254,0
1539627909.473,37.109,53.711,60.059,65.430,38.086,0
1539627909.477,38.086,62.012,58.105,66.895,16.113,0
1539627909.481,37.109,57.617,55.664,75.195,-10.254,0
1539627909.485,35.156,54.688,50.781,75.195,70.312,0
1539627909.489,43.945,46.387,56.641,66.895,41.016,0
1539627909.492,49.805,30.762,54.199,58.105,1.465,0
1539627909.496,62.500,34.180,48.828,63.477,22.949,0
1539627909.500,70.312,47.363,62.988,67.383,25.879,0
1539627909.504,53.711,57.129,67.383,52.734,7.812,0
1539627909.508,46.875,62.500,55.664,35.645,-17.090,0
1539627909.512,41.992,56.152,55.176,41.992,-22.949,0
1539627909.516,38.086,44.922,54.199,40.039,-21.484,0
1539627909.520,34.180,42.480,48.828,34.668,-4.883,0
1539627909.524,42.480,49.316,53.223,47.363,33.691,0
1539627909.528,52.246,56.641,57.617,64.453,59.570,0
1539627909.532,23.926,59.570,49.805,51.270,41.504,0
1539627909.535,10.742,55.176,50.781,38.574,65.918,0
1539627909.539,7.812,48.828,51.758,34.180,60.059,0
1539627909.543,-11.230,46.875,36.133,2.441,97.168,0
1539627909.547,-15.137,51.758,31.738,-11.230,99.121,0
1539627909.551,-22.461,59.570,33.203,-28.809,24.414,0
1539627909.555,-58.105,57.129,23.926,-50.781,35.645,0
1539627909.559,-72.754,59.570,17.578,-64.941,21.973,0
1539627909.563,-74.707,53.711,25.391,-67.871,14.160,0
1539627909.567,-87.402,46.875,29.785,-70.801,45.898,0
1539627909.571,-79.102,68.359,31.250,-77.148,28.809,0
1539627909.574,-85.938,83.008,33.691,-76.172,-18.066,0
1539627909.578,-101.562,67.871,27.344,-73.730,6.348,0
1539627909.582,-104.004,43.457,28.809,-90.820,31.738,0
1539627909.586,-110.840,50.293,26.855,-94.727,23.926,0
1539627909.590,-104.492,79.102,31.738,-99.121,9.277,0
1539627909.594,-81.055,82.031,46.875,-114.746,-23.438,0
1539627909.598,-56.641,71.777,49.805,-82.520,1.953,0
1539627909.602,-57.617,65.430,51.758,-44.922,4.883,0
1539627909.606,-83.984,62.988,56.152,-28.809,23.926,0
1539627909.610,-67.871,60.059,56.152,-38.574,27.832,0
1539627909.614,-44.434,49.805,53.223,-33.691,0.488,0
1539627909.617,-36.621,42.969,56.152,-12.207,13.672,0
1539627909.621,-12.695,59.570,49.316,-9.766,63.477,0
1539627909.625,-3.906,69.824,51.758,10.742,86.914,0
1539627909.629,-10.742,60.059,59.082,43.945,65.918,0
1539627909.633,11.719,52.734,61.035,53.711,49.805,0
1539627909.637,40.039,51.758,64.941,53.711,20.020,0
1539627909.641,43.945,52.734,68.359,62.012,41.992,0
1539627909.645,56.152,52.734,70.312,74.707,16.113,0
1539627909.649,62.012,49.316,71.289,94.727,-65.430,0
1539627909.653,78.125,44.434,71.777,95.703,16.602,0
1539627909.657,87.891,42.480,73.730,83.984,52.246,0
1539627909.660,74.707,38.086,77.637,81.543,-3.906,0
1539627909.664,83.984,34.180,79.102,92.285,62.988,0
1539627909.668,97.168,40.039,74.707,102.539,56.152,0
1539627909.672,108.398,49.316,66.895,103.516,6.348,0
1539627909.676,97.656,40.039,71.289,111.816,48.828,0
1539627909.680,88.379,28.809,78.125,110.352,51.758,0
1539627909.684,107.910,31.250,78.613,108.887,6.836,0
1539627909.688,110.840,39.551,75.195,106.445,-0.977,0
1539627909.692,98.145,39.551,69.336,110.352,-17.090,0
1539627909.696,100.586,38.574,74.707,129.883,29.785,0
1539627909.699,105.957,50.781,66.406,133.301,64.941,0
1539627909.703,114.258,59.082,65.918,112.793,63.477,0
1539627909.707,108.398,52.246,76.172,94.238,60.547,0
1539627909.711,89.844,42.969,79.102,84.961,64.941,0
1539627909.715,96.191,35.645,83.008,98.633,83.496,0
1539627909.719,115.234,41.992,78.613,102.539,42.969,0
1539627909.723,110.840,45.410,71.289,123.047,57.617,0
1539627909.727,94.727,39.551,76.172,114.258,63.965,0
1539627909.731,89.844,48.340,76.172,74.219,9.766,0
1539627909.735,88.379,45.898,66.406,88.379,34.668,0
1539627909.739,92.285,36.621,72.266,113.281,47.363,0
1539627909.742,83.496,29.785,75.684,115.234,23.926,1
1539627909.746,82.520,42.969,74.707,95.215,57.129,0
1539627909.750,91.797,53.223,74.219,77.148,64.941,0
1539627909.754,83.496,41.504,72.266,86.426,44.922,0
1539627909.758,84.473,47.363,74.219,107.422,11.230,0
1539627909.762,80.078,46.875,72.266,91.309,34.180,0
1539627909.766,75.195,42.480,63.477,82.520,77.637,0
1539627909.770,83.496,50.293,63.477,95.215,36.621,0
1539627909.774,88.867,45.898,83.984,107.422,-5.859,0
1539627909.778,89.844,29.297,88.867,122.070,-17.578,0
1539627909.782,80.078,38.574,82.520,117.676,-24.414,0
1539627909.785,65.918,53.223,79.102,94.238,11.230,0
1539627909.789,55.176,48.340,71.777,111.816,21.973,0
1539627909.793,67.871,45.410,72.754,115.234,-4.395,0
1539627909.797,78.125,43.945,71.777,74.707,44.922,0
1539627909.801,70.312,46.387,68.359,66.406,58.105,0
1539627909.805,69.336,44.434,67.383,63.965,38.086,0
1539627909.809,66.895,39.551,60.059,48.340,51.270,0
1539627909.813,62.988,34.668,54.199,43.457,30.762,0
1539627909.817,82.031,32.715,61.523,56.641,19.531,0
1539627909.821,85.938,43.457,63.477,76.660,70.312,0
1539627909.824,59.570,50.781,61.523,74.707,49.316,0
1539627909.828,54.688,51.758,65.918,67.871,-0.977,0
1539627909.832,64.941,57.129,74.219,77.637,33.203,0
1539627909.836,76.660,47.363,73.242,82.031,16.113,0
1539627909.840,63.965,37.598,67.871,91.309,-1.953,0
1539627909.844,56.152,49.805,66.406,86.426,23.926,0
1539627909.848,62.988,59.570,65.918,68.848,25.391,0
1539627909.852,75.195,57.129,71.289,63.477,27.832,0
1539627909.856,68.359,57.129,70.312,77.637,7.324,0
1539627909.860,59.570,60.059,71.289,82.520,27.832,0
1539627909.864,83.008,56.152,71.289,74.707,46.387,0
1539627909.867,98.145,53.223,66.406,72.266,-0.977,0
1539627909.871,81.055,45.898,69.336,83.984,-5.859,0
1539627909.875,68.848,39.062,74.219,81.543,31.738,0
1539627909.879,57.617,42.480,70.312,72.266,53.711,0
1539627909.883,38.086,48.340,68.359,64.453,75.195,0
1539627909.887,26.367,56.152,67.383,57.129,36.621,0
1539627909.891,26.855,62.012,68.359,63.965,-33.203,0
1539627909.895,39.551,65.430,62.500,86.914,-17.578,0
1539627909.899,48.828,67.383,61.523,76.172,36.621,0
1539627909.903,49.805,61.523,79.590,85.938,53.711,0
1539627909.907,83.496,55.664,82.520,95.215,5.371,0
1539627909.910,98.145,53.711,83.496,53.711,46.875,0
1539627909.914,83.496,52.246,79.590,50.293,58.594,0
1539627909.918,79.102,62.500,53.711,69.824,20.996,0
1539627909.922,65.430,71.777,64.941,64.453,62.988,0
1539627909.926,58.105,75.195,87.402,78.125,77.637,0
1539627909.930,67.383,81.055,87.891,88.379,75.195,0
1539627909.934,52.734,74.707,81.055,71.777,66.406,0
1539627909.938,52.734,66.895,73.730,67.383,53.711,0
1539627909.942,63.965,67.871,78.125,55.176,82.520,0
1539627909.946,61.523,66.895,81.543,57.617,78.613,0
1539627909.949,72.754,62.988,81.055,58.594,20.996,0
1539627909.953,69.824,51.270,75.195,69.824,50.781,0
1539627909.957,63.965,59.082,69.336,88.867,82.520,0
1539627909.961,62.500,66.406,70.801,78.125,25.879,0
1539627909.965,51.270,44.922,64.941,79.590,26.367,0
1539627909.969,42.969,47.363,63.965,83.984,48.340,0
1539627909.973,46.875,56.152,65.430,58.105,26.855,0
1539627909.977,55.176,44.922,52.734,31.738,-28.320,0
1539627909.981,45.898,39.551,39.062,30.273,-48.340,0
1539627909.985,48.340,45.898,41.016,30.273,0.488,0
1539627909.989,55.664,44.434,53.711,43.457,36.621,0
1539627909.992,42.969,37.109,60.059,43.457,28.320,0
1539627909.996,51.758,44.434,59.570,31.738,55.664,0
1539627910.000,68.359,49.316,64.941,54.199,75.195,0
1539627910.004,52.246,45.898,68.848,62.988,67.383,0
1539627910.008,28.320,41.016,66.406,55.664,53.223,0
1539627910.012,22.949,38.574,56.641,71.289,24.902,0
1539627910.016,33.203,51.270,52.246,81.055,50.781,0
1539627910.020,49.316,56.152,62.988,59.082,67.383,0
1539627910.024,55.176,54.199,71.777,58.105,11.230,0
1539627910.028,50.293,54.199,65.430,56.641,0.000,0
1539627910.032,60.059,49.316,63.965,50.781,0.488,0
1539627910.035,59.570,54.688,61.523,56.152,44.434,0
1539627910.039,48.340,63.965,56.641,50.781,81.543,0
1539627910.043,45.898,67.383,69.824,55.176,22.949,0
1539627910.047,50.781,61.523,76.660,42.480,-29.785,0
1539627910.051,50.781,45.898,71.289,26.855,20.996,0
1539627910.055,36.133,30.762,70.312,46.387,71.777,0
1539627910.059,29.297,30.273,68.848,54.688,36.133,0
1539627910.063,17.578,39.062,67.871,61.523,-11.230,0
1539627910.067,23.926,40.527,64.941,60.059,6.836,0
1539627910.071,30.762,51.270,66.406,58.105,66.895,0
1539627910.074,46.875,59.570,54.688,56.152,-13.184,0
1539627910.078,55.664,51.758,52.246,55.664,-27.344,0
1539627910.082,34.180,50.293,66.895,59.082,56.152,0
1539627910.086,22.461,57.617,68.848,42.480,72.266,0
1539627910.090,39.551,57.129,66.406,42.969,49.316,0
1539627910.094,43.945,43.457,56.641,56.641,25.879,0
1539627910.098,31.738,36.621,56.641,41.992,16.113,0
1539627910.102,36.621,39.062,53.223,15.137,47.363,0
1539627910.106,38.574,44.434,39.551,29.297,57.617,0
1539627910.110,40.527,52.734,49.316,48.340,20.996,0
1539627910.114,22.461,47.363,58.594,50.293,-28.809,0
1539627910.117,15.625,38.574,55.176,47.363,-20.020,0
1539627910.121,30.273,29.297,56.641,40.527,47.852,0
1539627910.125,34.668,22.461,53.223,24.414,89.355,0
1539627910.129,32.715,29.785,49.316,25.391,35.645,0
1539627910.133,21.484,30.762,46.387,37.598,43.945,0
1539627910.137,16.113,29.785,39.551,29.785,71.777,0
1539627910.141,11.230,43.945,36.621,12.695,62.012,0
1539627910.145,11.719,48.828,44.434,44.434,41.504,0
1539627910.149,13.184,42.480,57.617,78.613,52.246,0
1539627910.153,12.695,34.668,64.941,64.941,13.184,0
1539627910.157,33.691,41.504,63.477,59.570,-23.926,0
1539627910.160,68.359,47.363,56.641,60.547,41.016,0
1539627910.164,70.801,47.363,59.082,66.895,27.344,0
1539627910.168,51.270,63.965,67.871,39.062,9.277,0
1539627910.172,40.039,64.941,62.012,28.320,31.738,0
1539627910.176,45.410,57.617,61.523,62.500,39.062,0
1539627910.180,38.086,54.199,66.406,46.387,10.742,0
1539627910.184,29.785,52.246,64.941,51.758,-44.922,0
1539627910.188,60.547,52.734,57.129,58.594,39.062,0
1539627910.192,56.641,41.016,50.781,23.438,82.520,0
1539627910.196,43.457,19.043,68.848,19.531,24.414,0
1539627910.199,52.246,22.461,74.707,44.434,6.836,0
1539627910.203,37.598,45.410,58.105,62.988,49.805,0
1539627910.207,29.785,45.410,47.363,66.895,77.637,0
1539627910.211,24.902,29.785,52.246,58.105,66.406,0
1539627910.215,19.531,32.227,67.871,69.336,46.387,0
1539627910.219,25.391,50.293,62.500,64.941,0.977,0
1539627910.223,27.344,50.781,58.594,37.109,-5.371,0
1539627910.227,18.555,53.223,56.641,20.508,45.410,0
1539627910.231,35.156,55.176,63.965,16.602,53.223,0
1539627910.235,38.086,42.969,67.383,33.203,-12.207,0
1539627910.239,41.992,46.875,63.477,52.734,-20.508,0
1539627910.242,62.012,52.246,62.988,55.176,41.992,0
1539627910.246,62.500,49.316,61.523,60.547,-7.324,0
1539627910.250,49.316,43.945,66.895,54.688,-32.715,0
1539627910.254,50.781,31.738,64.453,44.922,25.391,0
1539627910.258,63.965,45.410,65.430,44.434,20.508,0
1539627910.262,56.641,71.777,63.965,40.039,0.488,0
1539627910.266,43.457,75.684,60.547,50.781,18.555,0
1539627910.270,50.781,59.082,66.406,55.176,41.016,0
1539627910.274,42.480,45.410,69.336,49.805,17.090,0
1539627910.278,25.879,48.828,70.801,47.363,67.871,0
1539627910.282,32.715,54.199,64.941,67.871,43.945,0
1539627910.285,42.480,55.176,62.988,86.426,5.371,0
1539627910.289,52.246,41.504,64.453,56.641,20.508,0
1539627910.293,39.062,24.902,62.012,38.574,11.719,0
1539627910.297,26.855,29.297,58.594,56.152,25.391,0
1539627910.301,20.020,34.668,61.523,56.641,25.391,0
1539627910.305,20.020,42.969,67.383,60.547,0.977,0
1539627910.309,33.203,51.758,57.617,44.434,12.695,0
1539627910.313,25.391,46.875,53.711,35.156,30.762,0
1539627910.317,35.645,42.480,51.758,46.387,52.734,0
1539627910.321,41.504,35.156,53.223,35.645,92.285,0
1539627910.324,20.996,36.621,68.848,48.340,89.355,0
1539627910.328,30.273,47.852,73.730,63.477,79.102,0
1539627910.332,26.367,43.945,67.871,42.480,26.367,0
1539627910.336,33.203,39.551,69.824,25.879,45.410,0
1539627910.340,49.316,41.504,62.988,64.941,64.453,0
1539627910.344,34.668,31.250,40.527,65.430,46.875,0
1539627910.348,39.062,28.320,35.156,31.738,77.148,0
1539627910.352,20.996,45.410,48.340,30.762,29.297,0
1539627910.356,10.742,48.828,52.246,36.621,-28.809,0
1539627910.360,17.578,61.523,46.875,25.391,-3.906,0
1539627910.364,14.160,64.453,46.875,5.859,40.039,0
1539627910.367,11.719,51.758,51.758,-1.953,51.270,0
1539627910.371,9.277,54.199,55.176,-2.441,26.367,0
1539627910.375,13.184,54.199,51.758,2.441,43.457,0
1539627910.379,16.602,50.293,46.387,13.184,84.473,0
1539627910.383,19.043,50.781,43.457,3.906,87.891,0
1539627910.387,26.367,51.758,45.410,20.508,51.758,0
1539627910.391,13.672,50.293,46.387,36.133,15.137,0
1539627910.395,1.953,43.457,44.434,27.832,21.484,0
1539627910.399,17.090,45.410,43.457,23.438,45.410,0
1539627910.403,30.273,52.734,47.852,34.180,59.082,0
1539627910.407,36.133,57.617,69.336,40.527,66.406,0
1539627910.410,42.480,58.105,77.148,41.016,-3.906,0
1539627910.414,37.598,51.758,72.266,42.480,-33.691,0
1539627910.418,38.086,51.270,66.406,52.246,41.504,0
1539627910.422,33.203,57.129,55.664,58.594,35.156,0
1539627910.426,32.227,56.641,63.965,50.781,38.574,0
1539627910.430,40.039,48.828,75.684,46.387,68.359,0
1539627910.434,29.297,50.293,68.848,47.852,38.086,0
1539627910.438,27.832,52.734,56.152,50.781,7.812,0
1539627910.442,17.090,44.922,59.082,46.875,20.996,0
1539627910.446,10.254,40.527,62.500,44.434,48.828,0
1539627910.449,27.344,39.551,60.059,43.457,45.898,0
1539627910.453,27.344,35.156,53.711,17.090,21.484,0
1539627910.457,22.461,24.902,50.781,7.324,11.719,0
1539627910.461,35.156,27.344,51.758,24.414,65.918,0
1539627910.465,39.551,42.969,47.363,36.133,56.641,0
1539627910.469,36.621,49.316,54.199,46.875,38.086,0
1539627910.473,36.621,46.387,61.035,62.012,57.129,0
1539627910.477,43.457,45.410,52.734,61.523,23.926,0
1539627910.481,51.270,52.246,57.129,47.852,35.156,0
1539627910.485,47.363,64.941,66.406,64.453,79.590,0
1539627910.489,45.898,69.336,61.523,61.035,19.531,0
1539627910.492,64.453,41.504,58.105,42.969,-32.715,0
1539627910.496,39.062,27.832,55.176,63.965,43.457,0
1539627910.500,8.789,44.434,46.875,62.988,57.129,0
1539627910.504,7.324,48.828,55.176,16.602,0.488,0
1539627910.508,6.836,34.668,67.871,1.953,116.211,0
1539627910.512,18.555,28.809,62.988,44.922,92.285,0
1539627910.516,23.438,44.434,57.617,66.895,21.484,0
1539627910.520,12.695,52.734,58.594,55.664,92.285,0
1539627910.524,-0.977,41.992,47.363,52.246,74.707,0
1539627910.528,-4.395,36.621,45.898,35.156,7.324,0
1539627910.532,3.906,40.527,56.152,15.625,-3.418,0
1539627910.535,26.367,51.270,61.523,33.691,33.203,0
1539627910.539,45.410,51.758,59.082,58.594,4.883,0
1539627910.543,57.617,54.199,55.176,32.715,18.555,0
1539627910.547,59.082,58.105,60.547,27.832,55.176,0
1539627910.551,45.410,46.875,57.129,42.480,-14.160,0
1539627910.555,32.227,46.387,49.316,43.457,0.977,0
1539627910.559,27.832,46.875,49.316,42.969,30.762,0
1539627910.563,29.297,45.898,42.480,32.715,-6.836,0
1539627910.567,36.621,55.176,46.387,51.758,20.508,0
1539627910.571,37.598,57.617,58.105,41.992,44.434,0
1539627910.574,43.945,54.199,67.871,19.531,33.203,0
1539627910.578,53.223,59.082,62.988,50.781,48.828,0
1539627910.582,37.109,54.688,43.457,49.805,27.344,0
1539627910.586,22.949,33.203,39.062,24.414,22.461,0
1539627910.590,27.832,29.785,53.711,20.020,33.691,0
1539627910.594,36.621,45.898,61.035,27.344,24.902,0
1539627910.598,48.340,41.992,61.035,47.852,59.082,0
1539627910.602,52.246,40.039,66.406,59.570,80.078,0
1539627910.606,43.457,51.758,69.336,55.664,77.637,0
1539627910.610,29.297,47.852,71.777,68.359,74.707,0
1539627910.614,14.160,46.875,65.430,61.035,8.301,0
1539627910.617,8.301,40.527,62.012,41.992,37.109,0
1539627910.621,15.137,31.250,63.965,56.152,93.750,0
1539627910.625,12.695,43.457,62.500,63.965,24.414,0
1539627910.629,12.695,46.875,59.082,66.406,-27.832,0
1539627910.633,26.855,41.504,54.199,54.199,12.207,0
1539627910.637,29.297,36.133,52.246,23.926,42.480,0
1539627910.641,40.039,39.062,61.523,19.043,26.367,0
1539627910.645,48.340,39.551,48.828,34.668,34.668,0
1539627910.649,22.949,34.180,42.480,33.203,64.453,0
1539627910.653,26.367,39.551,51.758,32.227,97.168,0
1539627910.657,38.086,36.621,41.504,43.945,67.383,0
1539627910.660,26.855,28.320,51.758,36.621,54.199,0
1539627910.664,14.160,27.832,65.430,34.180,54.688,0
1539627910.668,4.883,23.438,58.105,55.176,27.832,0
1539627910.672,23.926,33.691,51.758,59.082,32.715,0
1539627910.676,43.945,51.758,40.527,51.270,22.461,0
1539627910.680,53.711,50.293,37.109,48.828,28.809,0
1539627910.684,43.457,34.668,54.688,37.109,47.852,0
1539627910.688,21.973,32.715,57.617,28.809,43.945,0
1539627910.692,32.227,39.551,48.828,53.223,4.883,0
1539627910.696,31.250,38.574,51.758,61.523,-59.082,0
1539627910.699,28.320,33.203,59.570,46.387,-43.945,0
1539627910.703,40.039,32.227,59.570,41.504,23.438,0
1539627910.707,39.551,33.203,64.941,40.039,-33.203,0
1539627910.711,36.133,35.156,66.895,44.434,-34.668,0
1539627910.715,35.645,30.273,53.711,55.176,55.176,0
1539627910.719,21.484,27.344,56.641,48.340,-36.133,0
1539627910.723,20.996,31.250,60.059,36.133,-66.406,0
1539627910.727,20.020,28.320,53.711,39.551,31.738,0
1539627910.731,27.832,26.855,63.477,66.406,67.383,0
1539627910.735,46.387,19.531,61.035,62.988,33.691,0
1539627910.739,40.039,21.484,49.316,42.969,3.906,0
1539627910.742,32.715,31.738,51.270,63.965,33.203,0
1539627910.746,49.805,20.996,52.246,79.102,56.152,0
1539627910.750,47.852,23.926,44.922,59.570,3.418,0
1539627910.754,39.062,44.922,40.039,22.949,8.301,0
1539627910.758,40.039,46.387,47.852,4.395,65.430,0
1539627910.762,25.879,41.504,50.293,5.371,65.918,0
1539627910.766,16.602,38.574,50.293,30.762,79.102,0
1539627910.770,23.438,39.062,51.758,49.805,86.426,0
1539627910.774,41.016,30.762,56.152,58.594,63.965,0
1539627910.778,45.898,29.785,58.594,65.918,58.105,0
1539627910.782,43.945,42.480,53.223,72.754,32.715,0
1539627910.785,37.598,41.992,55.176,62.500,39.551,0
1539627910.789,24.414,37.109,53.711,40.527,80.078,0
1539627910.793,31.250,38.086,52.734,28.809,-3.906,0
1539627910.797,41.504,35.645,50.781,17.578,-4.883,0
1539627910.801,32.227,37.109,57.617,46.387,59.082,0
1539627910.805,40.039,35.645,68.848,67.871,-3.418,0
1539627910.809,60.059,24.902,60.547,61.523,20.020,0
1539627910.813,65.918,32.227,55.664,59.082,72.266,0
1539627910.817,70.801,41.504,51.270,52.734,49.316,0
1539627910.821,56.641,41.016,53.223,38.086,32.715,0
1539627910.824,29.785,42.969,54.688,36.621,24.414,0
1539627910.828,24.414,39.551,55.664,49.805,40.527,0
1539627910.832,32.227,39.062,68.359,58.594,28.809,0
1539627910.836,47.852,38.086,74.707,61.035,-2.930,0
1539627910.840,37.109,41.992,72.754,43.457,55.176,0
1539627910.844,25.391,64.941,53.711,39.062,90.332,0
1539627910.848,20.996,50.293,44.922,55.664,23.438,0
1539627910.852,20.508,41.992,58.594,65.918,-12.207,0
1539627910.856,22.949,56.152,63.477,66.895,-0.977,0
1539627910.860,28.320,48.340,54.199,52.246,23.926,0
1539627910.864,42.969,48.340,38.574,32.715,-9.766,0
1539627910.867,34.668,49.316,43.945,28.320,-27.832,0
1539627910.871,36.133,42.969,54.688,28.320,2.441,0
1539627910.875,49.316,50.781,55.664,33.203,50.293,0
1539627910.879,54.199,51.758,50.293,27.344,41.504,0
1539627910.883,48.828,35.645,44.434,14.648,28.320,0
1539627910.887,40.527,30.762,47.363,17.090,46.387,0
1539627910.891,22.461,35.156,45.410,28.320,17.090,0
1539627910.895,7.324,43.457,53.711,41.992,17.090,0
1539627910.899,17.090,45.898,54.199,49.805,34.668,0
1539627910.903,15.625,43.457,32.227,38.574,104.980,0
1539627910.907,9.277,46.387,29.785,40.527,102.051,0
1539627910.910,19.043,39.062,47.852,36.621,21.973,0
1539627910.914,21.484,32.227,61.035,43.945,18.555,0
1539627910.918,32.227,40.039,62.500,68.848,24.414,0
1539627910.922,41.016,43.945,53.711,77.637,47.852,0
1539627910.926,39.551,39.551,53.711,61.523,10.742,0
1539627910.930,39.062,34.668,55.664,39.551,-22.461,0
1539627910.934,36.133,31.738,56.152,43.945,19.043,0
1539627910.938,9.766,31.738,53.223,41.504,-0.488,0
1539627910.942,7.812,30.762,53.223,41.992,18.555,0
1539627910.946,26.855,42.969,52.734,41.992,42.480,0
1539627910.949,28.809,47.363,52.246,47.852,16.602,0
1539627910.953,27.344,40.527,51.270,41.016,10.254,0
1539627910.957,24.902,38.086,30.273,21.973,15.625,0
1539627910.961,35.156,30.762,30.762,23.926,28.320,0
1539627910.965,35.156,40.527,51.758,37.598,61.035,0
1539627910.969,20.996,48.340,56.152,40.039,32.227,0
1539627910.973,29.297,41.504,51.270,39.062,6.348,0
1539627910.977,31.738,35.156,50.781,56.152,0.488,0
1539627910.981,13.672,37.109,51.758,56.641,45.898,0
1539627910.985,30.273,39.551,51.270,61.035,24.414,0
1539627910.989,37.109,27.344,46.387,53.711,18.555,0
1539627910.992,24.902,19.531,50.781,42.969,60.059,0
1539627910.996,29.297,8.301,58.594,51.758,-19.043,0
1539627911.000,44.434,20.020,39.062,58.594,-54.199,0
1539627911.004,41.504,53.711,32.715,49.805,18.066,0
1539627911.008,10.254,62.012,46.387,25.391,69.336,0
1539627911.012,9.277,47.363,47.363,12.207,62.988,0
1539627911.016,16.113,34.668,39.062,19.043,69.824,0
1539627911.020,25.391,32.715,35.645,28.320,88.379,0
1539627911.024,33.691,31.250,47.363,38.574,59.570,0
1539627911.028,44.922,34.668,58.105,37.109,38.574,0
1539627911.032,48.828,38.086,49.316,41.016,24.414,0
1539627911.035,44.922,43.945,41.016,49.805,25.391,0
1539627911.039,45.410,43.945,52.734,43.945,29.785,0
1539627911.043,30.273,18.555,57.129,42.969,48.828,0
1539627911.047,20.508,14.648,56.641,77.637,57.129,0
1539627911.051,30.273,44.434,57.129,83.008,41.016,0
1539627911.055,24.414,49.805,51.758,35.156,-4.883,0
1539627911.059,10.254,39.062,45.898,29.785,-9.766,0
1539627911.063,20.020,44.922,45.410,41.992,56.152,0
1539627911.067,30.762,48.828,53.223,46.387,46.387,0
1539627911.071,40.527,39.062,64.453,63.477,14.648,0
1539627911.074,31.738,37.598,57.129,62.012,38.086,0
1539627911.078,41.992,35.645,51.758,53.223,17.578,0
1539627911.082,62.988,31.738,51.270,51.270,-34.180,0
1539627911.086,50.781,45.410,53.711,44.922,-57.617,0
1539627911.090,33.203,50.781,51.270,39.551,-28.320,0
1539627911.094,27.832,41.992,42.480,38.086,55.176,0
1539627911.098,22.461,43.945,46.387,34.180,72.754,0
1539627911.102,27.344,49.316,51.270,39.062,-7.324,0
1539627911.106,33.691,41.992,53.711,38.086,41.504,0
1539627911.110,39.062,21.973,55.176,41.016,78.125,0
1539627911.114,43.945,26.367,48.828,36.133,61.035,0
1539627911.117,44.434,45.410,42.969,25.391,60.059,0
1539627911.121,30.273,48.340,47.852,32.227,24.414,1
1539627911.125,26.855,34.180,48.828,37.109,46.387,0
1539627911.129,41.992,20.996,42.969,48.828,32.715,0
1539627911.133,37.598,30.273,34.668,29.297,-6.836,0
1539627911.137,29.297,39.062,44.434,34.180,10.254,0
1539627911.141,38.574,51.270,65.430,48.828,38.086,0
1539627911.145,37.109,44.434,63.965,34.668,23.926,0
1539627911.149,37.598,31.250,53.223,42.969,-0.488,0
1539627911.153,40.039,41.504,53.711,61.523,2.441,0
1539627911.157,12.207,44.434,55.664,64.941,45.410,0
1539627911.160,1.465,30.273,51.758,44.922,75.684,0
1539627911.164,21.484,24.414,50.781,54.688,79.590,0
1539627911.168,26.367,30.762,52.246,56.152,84.961,0
1539627911.172,35.645,37.598,48.828,41.504,63.477,0
1539627911.176,34.668,38.086,47.363,49.316,-9.766,0
1539627911.180,24.414,31.250,49.805,33.203,2.930,0
1539627911.184,32.715,32.227,44.434,12.207,24.902,0
1539627911.188,47.363,35.645,41.992,22.461,-13.184,0
1539627911.192,43.457,30.762,43.945,39.062,7.812,0
1539627911.196,37.598,34.668,44.434,42.480,44.922,0
1539627911.199,34.180,46.387,48.828,47.852,-10.254,0
1539627911.203,26.367,44.922,52.734,45.410,2.441,0
1539627911.207,25.879,37.109,52.246,38.574,33.691,0
1539627911.211,28.809,35.156,47.363,50.293,-10.742,0
1539627911.215,38.086,37.109,41.992,61.523,31.250,0
1539627911.219,46.875,36.621,50.293,57.617,40.039,0
1539627911.223,50.781,31.250,60.547,53.711,13.184,0
1539627911.227,29.785,24.902,53.711,38.086,27.832,0
1539627911.231,24.902,36.133,48.828,22.461,41.016,0
1539627911.235,22.461,50.781,51.758,44.434,82.031,0
1539627911.239,28.320,36.621,46.875,63.477,47.363,0
1539627911.242,36.621,24.902,47.363,65.918,1.465,0
1539627911.246,26.367,28.320,55.664,52.734,34.180,0
1539627911.250,33.203,39.062,52.734,35.645,39.062,0
1539627911.254,43.945,34.180,53.223,47.363,19.043,0
1539627911.258,43.945,27.344,51.758,58.594,-3.906,0
1539627911.262,44.434,37.109,49.805,45.898,-7.812,0
1539627911.266,36.133,36.621,41.992,22.949,-16.113,0
1539627911.270,28.320,32.715,29.785,17.578,11.230,0
1539627911.274,35.156,32.227,41.992,35.156,72.754,0
1539627911.278,41.016,31.250,52.734,47.363,36.621,0
1539627911.282,37.598,36.133,50.781,55.664,20.020,0
1539627911.285,14.160,31.738,46.875,53.223,39.062,0
1539627911.289,10.742,24.902,51.270,37.598,42.480,0
1539627911.293,34.668,27.832,57.617,29.297,43.945,0
1539627911.297,36.621,37.598,52.734,32.715,28.809,0
1539627911.301,41.016,30.273,46.875,46.387,7.812,0
1539627911.305,42.969,20.508,45.410,28.809,42.480,0
1539627911.309,48.828,30.762,45.898,32.715,45.410,0
1539627911.313,31.738,35.156,47.363,59.570,7.812,0
1539627911.317,0.000,35.645,41.992,56.641,37.109,0
1539627911.321,11.719,38.086,44.434,53.711,103.027,0
1539627911.324,26.367,47.852,51.758,50.781,71.777,0
1539627911.328,27.344,35.156,46.875,33.203,12.695,0
1539627911.332,41.992,21.973,38.086,29.785,-0.977,0
1539627911.336,38.086,36.621,46.875,62.012,44.434,0
1539627911.340,33.203,35.645,46.875,63.477,61.035,0
1539627911.344,25.391,24.902,42.969,43.945,39.062,0
1539627911.348,16.113,25.391,48.340,28.809,42.480,0
1539627911.352,13.184,30.273,40.039,29.297,28.320,0
1539627911.356,14.160,26.855,41.016,31.250,39.062,0
1539627911.360,28.809,20.508,47.363,36.621,33.691,0
1539627911.364,36.621,24.902,43.945,44.922,20.508,0
1539627911.367,48.828,34.668,43.945,53.223,13.672,0
1539627911.371,64.941,46.875,47.852,60.547,30.273,0
1539627911.375,54.688,40.039,44.922,52.734,24.902,0
1539627911.379,30.273,20.508,47.363,47.852,66.895,0
1539627911.383,36.621,22.461,47.363,47.852,91.309,0
1539627911.387,50.293,38.574,45.898,49.805,91.309,0
1539627911.391,35.156,44.434,52.734,54.688,90.820,0
1539627911.395,11.230,44.922,48.828,51.758,21.973,0
1539627911.399,15.137,40.039,43.457,57.617,17.578,0
1539627911.403,20.508,31.738,49.805,58.105,-6.348,0
1539627911.407,14.648,27.832,57.129,41.992,-12.695,0
1539627911.410,25.879,31.738,50.781,45.410,20.996,0
1539627911.414,23.926,27.832,47.852,44.434,0.977,0
1539627911.418,22.461,20.996,52.246,49.805,53.711,0
1539627911.422,29.297,22.949,53.223,48.828,50.781,0
1539627911.426,35.645,33.691,50.781,62.500,13.672,0
1539627911.430,51.270,40.039,49.805,68.359,53.711,0
1539627911.434,51.270,35.645,48.828,35.645,-4.395,0
1539627911.438,58.594,29.297,40.039,13.184,10.254,0
1539627911.442,63.965,29.297,41.992,8.789,50.781,0
1539627911.446,58.105,39.551,51.758,20.020,-3.418,0
1539627911.449,48.828,39.062,46.875,29.297,17.090,0
1539627911.453,25.391,32.227,43.945,18.555,-26.855,0
1539627911.457,29.297,27.344,46.875,22.949,-10.742,0
1539627911.461,54.199,22.461,41.992,46.387,11.230,0
1539627911.465,50.293,27.832,35.156,54.199,13.672,0
1539627911.469,43.945,38.086,42.969,35.156,49.805,0
1539627911.473,37.109,37.109,57.617,35.645,18.066,0
1539627911.477,14.648,28.320,54.199,34.668,58.594,0
1539627911.481,-1.465,22.949,47.363,44.922,73.242,0
1539627911.485,19.531,32.715,49.805,53.711,56.641,0
1539627911.489,31.738,46.387,56.152,36.133,31.250,0
1539627911.492,34.668,44.922,56.641,43.457,-19.531,0
1539627911.496,31.250,42.969,55.664,56.152,29.785,0
1539627911.500,24.414,48.828,55.664,56.641,123.535,0
1539627911.504,27.344,41.016,48.340,58.105,39.551,0
1539627911.508,20.020,32.715,39.062,47.363,9.277,0
1539627911.512,26.855,37.598,42.480,38.086,89.844,0
1539627911.516,43.945,41.504,47.852,52.734,59.570,0
1539627911.520,55.176,39.062,51.270,57.129,10.742,0
1539627911.524,55.176,34.180,46.875,58.594,-0.488,0
1539627911.528,34.668,27.344,46.875,51.270,-13.672,0
1539627911.532,33.203,25.879,51.270,43.945,36.133,0
1539627911.535,39.062,33.203,53.711,41.504,62.500,0
1539627911.539,43.945,38.574,54.199,50.781,44.434,0
1539627911.543,35.156,34.668,58.594,58.105,-8.789,0
1539627911.547,25.879,30.762,60.547,47.852,19.531,0
1539627911.551,28.320,34.668,56.641,53.711,59.082,0
1539627911.555,36.621,34.668,51.758,57.129,5.859,0
1539627911.559,35.645,34.668,50.293,55.176,14.648,0
1539627911.563,33.691,31.738,48.340,65.430,48.340,0
1539627911.567,40.527,25.391,35.645,54.199,16.113,0
1539627911.571,29.297,22.461,32.227,36.621,-3.418,0
1539627911.574,32.227,27.344,41.016,30.273,-17.090,0
1539627911.578,43.457,32.715,38.086,24.414,56.641,0
1539627911.582,52.246,38.086,36.621,47.363,54.199,0
1539627911.586,63.965,42.969,42.969,49.316,-13.184,0
1539627911.590,47.363,42.969,46.387,40.527,64.453,0
1539627911.594,22.949,41.992,37.598,54.199,18.555,0
1539627911.598,24.902,31.250,34.668,54.688,0.488,0
1539627911.602,29.297,21.973,43.457,63.477,66.895,0
1539627911.606,27.344,25.879,47.852,71.777,38.086,0
1539627911.610,52.246,31.738,51.758,44.434,53.223,0
1539627911.614,57.617,45.410,49.316,27.344,44.922,0
1539627911.617,39.062,42.969,41.992,38.574,-4.395,0
1539627911.621,43.945,26.855,41.992,45.898,-8.789,0
1539627911.625,32.227,26.367,42.969,49.805,52.246,0
1539627911.629,19.531,34.668,36.621,61.523,76.660,0
1539627911.633,35.156,23.438,43.457,46.875,12.695,0
1539627911.637,38.086,9.766,42.969,31.738,26.367,0
1539627911.641,29.297,27.832,39.062,44.922,57.617,0
1539627911.645,33.203,41.016,40.527,62.500,25.879,0
1539627911.649,38.574,43.945,34.668,82.520,-12.695,0
1539627911.653,35.645,45.410,46.875,49.316,-0.488,0
1539627911.657,35.645,36.133,51.270,11.230,59.570,0
1539627911.660,56.641,32.227,50.781,41.992,55.664,0
1539627911.664,38.574,33.691,43.457,59.082,2.930,0
1539627911.668,28.809,38.086,37.598,58.105,1.465,0
1539627911.672,45.410,41.504,46.875,60.059,62.988,0
1539627911.676,41.992,40.039,48.828,59.570,44.922,0
1539627911.680,48.340,35.645,50.781,50.781,18.555,0
1539627911.684,50.781,35.645,50.293,38.574,15.137,0
1539627911.688,34.180,39.062,52.734,40.527,35.645,0
1539627911.692,19.531,37.598,47.363,33.691,27.344,0
1539627911.696,9.277,37.109,28.320,-0.977,29.785,0
1539627911.699,0.977,31.250,27.344,-10.254,27.344,0
1539627911.703,-11.719,41.504,39.062,7.812,18.066,0
1539627911.707,-25.879,54.688,40.527,7.812,18.555,0
1539627911.711,-35.156,48.828,34.668,-20.020,-3.418,0
1539627911.715,-57.129,46.875,31.250,-41.504,10.742,0
1539627911.719,-85.449,47.363,19.531,-58.105,-50.293,0
1539627911.723,-87.891,57.129,9.766,-70.312,-91.797,0
1539627911.727,-91.797,65.918,10.254,-91.309,-23.926,0
1539627911.731,-88.867,73.242,14.648,-102.051,-6.836,0
1539627911.735,-80.078,65.918,21.484,-94.238,-41.016,0
1539627911.739,-103.516,51.758,18.066,-109.863,-5.371,0
1539627911.742,-132.812,50.293,12.695,-122.559,10.254,0
1539627911.746,-124.512,53.223,16.113,-126.465,-22.949,0
1539627911.750,-108.398,59.082,12.695,-132.812,-2.930,0
1539627911.754,-103.516,68.848,15.137,-119.141,8.301,0
1539627911.758,-112.305,69.824,22.949,-73.242,-39.551,0
1539627911.762,-117.676,47.852,23.438,-67.383,-41.016,0
1539627911.766,-91.797,38.086,19.043,-96.191,8.789,0
1539627911.770,-65.918,55.176,15.625,-103.516,8.789,0
1539627911.774,-62.012,70.801,19.531,-91.309,4.395,0
1539627911.778,-67.383,64.941,21.973,-67.871,92.285,0
1539627911.782,-73.242,52.734,24.902,-57.129,83.008,0
1539627911.785,-61.035,54.199,21.973,-35.156,36.621,0
1539627911.789,-42.969,58.105,20.996,-8.789,69.336,0
1539627911.793,-31.738,58.105,35.156,-3.906,63.965,0
1539627911.797,-30.762,49.805,42.969,-13.672,2.441,0
1539627911.801,-20.020,41.504,37.109,-14.160,17.578,0
1539627911.805,-8.301,43.457,37.109,-6.836,65.918,0
1539627911.809,-22.461,33.203,36.621,-5.859,28.320,0
1539627911.813,-29.785,32.227,36.133,-5.859,33.203,0
1539627911.817,-18.555,41.992,33.691,-14.648,52.246,0
1539627911.821,-11.719,47.852,34.180,-0.977,29.785,0
1539627911.824,-26.855,41.016,36.133,5.859,62.500,0
1539627911.828,-37.109,32.715,33.691,-3.418,90.820,0
1539627911.832,-37.109,36.621,35.645,1.465,111.328,0
1539627911.836,-38.086,43.457,39.551,-10.742,61.523,0
1539627911.840,-26.855,52.734,38.086,-20.996,34.180,0
1539627911.844,-19.531,56.641,37.109,-28.809,42.480,0
1539627911.848,-41.016,53.223,39.062,-32.227,71.289,0
1539627911.852,-49.316,47.363,37.598,-19.043,48.828,0
1539627911.856,-44.922,43.945,41.504,-27.832,33.691,0
1539627911.860,-49.316,47.363,49.316,-23.438,82.031,0
1539627911.864,-48.340,44.922,41.504,-11.230,78.125,0
1539627911.867,-36.621,46.387,31.738,-23.438,62.012,0
1539627911.871,-28.809,44.922,33.203,-27.344,40.527,0
1539627911.875,-34.180,37.109,31.250,-28.809,18.066,0
1539627911.879,-24.414,46.875,35.156,-21.973,35.645,0
1539627911.883,-25.879,40.039,36.133,-12.207,53.223,0
1539627911.887,-16.602,37.598,31.250,1.465,54.199,0
1539627911.891,-5.371,52.734,37.109,5.371,40.039,0
1539627911.895,-13.184,43.945,38.086,-3.418,51.270,0
1539627911.899,-0.488,31.738,41.016,6.348,68.359,0
1539627911.903,18.066,37.598,45.410,40.039,34.668,0
1539627911.907,22.461,46.875,44.434,59.570,13.184,0
1539627911.910,28.320,40.527,52.246,64.453,21.484,0
1539627911.914,64.453,15.137,51.270,70.801,-7.812,0
1539627911.918,85.449,13.672,52.246,89.844,-20.508,0
1539627911.922,79.590,33.691,51.270,98.145,9.766,0
1539627911.926,73.730,35.645,47.852,100.098,13.184,0
1539627911.930,71.777,18.555,56.152,104.004,27.344,0
1539627911.934,70.312,11.230,56.152,107.422,37.109,0
1539627911.938,76.660,19.531,52.246,102.539,10.254,0
1539627911.942,90.820,25.391,54.688,113.281,3.418,0
1539627911.946,106.934,20.996,52.246,128.906,63.477,0
1539627911.949,117.676,17.578,46.387,102.539,83.496,0
1539627911.953,111.816,18.555,47.852,108.398,30.273,0
1539627911.957,116.699,20.508,48.828,127.441,9.277,0
1539627911.961,128.906,13.672,49.316,156.250,0.977,0
1539627911.965,120.605,6.348,60.547,178.223,77.637,0
1539627911.969,126.953,11.230,55.664,150.391,36.621,0
1539627911.973,145.508,11.719,51.758,127.930,8.301,0
1539627911.977,150.879,9.277,49.316,143.066,71.289,0
1539627911.981,142.090,13.184,43.945,156.250,70.801,0
1539627911.985,123.535,18.066,50.781,140.137,67.871,0
1539627911.989,108.887,15.625,59.082,135.742,54.199,0
1539627911.992,114.258,14.648,60.059,130.859,49.316,0
1539627911.996,125.000,14.160,63.477,129.883,43.457,0
1539627912.000,111.328,8.301,53.223,130.859,29.785,0
1539627912.004,105.957,3.906,46.387,120.117,87.891,0
1539627912.008,129.395,11.230,50.781,120.605,93.750,0
1539627912.012,122.070,20.508,54.688,123.535,48.340,0
1539627912.016,90.820,14.160,48.340,108.398,83.008,0
1539627912.020,92.773,15.137,41.016,108.398,54.688,0
1539627912.024,105.957,19.531,49.805,114.258,23.926,0
1539627912.028,105.957,17.090,54.199,112.793,25.879,0
1539627912.032,128.906,19.531,50.781,124.512,16.602,0
1539627912.035,114.746,13.184,52.246,139.648,59.570,0
1539627912.039,82.031,9.766,53.711,117.676,61.035,0
1539627912.043,78.125,14.160,50.293,115.723,93.262,0
1539627912.047,84.961,10.742,41.504,123.047,78.613,0
1539627912.051,97.656,12.695,39.062,107.422,1.465,0
1539627912.055,104.492,19.531,44.922,109.375,62.500,0
1539627912.059,103.516,19.531,46.875,105.469,89.844,0
1539627912.063,91.797,21.973,44.922,97.656,36.133,0
1539627912.067,93.750,23.926,46.387,101.562,46.875,0
1539627912.071,108.887,13.184,47.363,89.844,27.832,0
1539627912.074,86.914,1.953,53.711,90.332,3.906,0
1539627912.078,73.730,9.766,50.293,99.121,0.000,0
1539627912.082,79.102,24.902,42.480,81.543,19.531,0
1539627912.086,60.547,30.762,56.152,85.449,84.473,0
1539627912.090,53.711,30.273,66.406,88.379,20.508,0
1539627912.094,72.266,29.785,60.059,80.566,-30.762,0
1539627912.098,73.730,29.297,49.316,98.145,26.367,0
1539627912.102,72.266,28.320,46.875,90.332,31.738,0
1539627912.106,83.496,35.645,43.457,69.824,15.137,0
1539627912.110,74.219,23.926,44.434,58.105,1.953,0
1539627912.114,75.195,8.789,50.781,52.734,23.926,0
1539627912.117,91.797,23.438,46.387,63.965,19.043,0
1539627912.121,86.914,42.969,37.109,67.871,24.414,0
1539627912.125,90.820,42.480,42.480,95.215,55.176,0
1539627912.129,96.191,26.855,54.688,94.238,99.121,0
1539627912.133,65.918,15.625,55.664,56.641,85.938,0
1539627912.137,47.363,26.367,51.758,72.266,15.625,0
1539627912.141,43.457,37.109,49.316,83.984,41.016,0
1539627912.145,47.363,29.785,49.805,70.312,54.199,0
1539627912.149,51.758,26.367,43.945,63.477,-1.465,0
1539627912.153,58.105,27.344,30.762,55.176,-13.184,0
1539627912.157,67.871,21.484,32.715,60.547,45.410,0
1539627912.160,63.477,22.461,45.898,78.613,59.570,0
1539627912.164,51.758,29.297,56.641,77.148,40.527,0
1539627912.168,51.270,28.320,55.176,82.031,5.859,0
1539627912.172,56.641,33.691,49.316,95.215,31.250,0
1539627912.176,53.223,29.297,44.922,78.125,64.941,0
1539627912.180,60.059,23.438,43.945,45.898,-14.160,0
1539627912.184,55.664,24.414,44.434,33.203,30.762,0
1539627912.188,41.504,26.367,44.434,52.734,41.992,0
1539627912.192,50.293,34.180,41.504,51.758,17.090,0
1539627912.196,49.805,35.645,35.156,38.086,-15.625,0
1539627912.199,48.340,25.879,31.250,36.133,-28.809,0
1539627912.203,61.523,21.484,28.320,35.645,83.984,0
1539627912.207,55.664,16.113,29.785,52.734,108.398,0
1539627912.211,45.410,16.602,38.574,53.711,88.867,0
1539627912.215,41.016,32.715,44.434,41.504,104.492,0
1539627912.219,46.387,41.504,32.715,43.457,42.969,0
1539627912.223,57.129,38.086,23.438,56.152,0.000,0
1539627912.227,46.387,39.551,31.250,61.035,41.992,0
1539627912.231,37.109,25.879,35.645,55.664,47.852,0
1539627912.235,44.922,25.391,41.504,65.918,35.645,0
1539627912.239,44.922,38.574,50.293,68.848,70.312,0
1539627912.242,36.621,36.621,49.805,54.688,39.551,0
1539627912.246,28.809,34.668,38.574,49.805,7.324,0
1539627912.250,30.273,28.809,36.133,58.105,-11.230,0
1539627912.254,33.691,17.578,47.363,72.754,-2.930,0
1539627912.258,41.992,22.461,44.922,58.105,34.180,0
1539627912.262,45.898,27.344,42.480,41.504,48.828,0
1539627912.266,47.363,21.484,42.480,62.012,44.922,0
1539627912.270,44.434,30.273,45.410,74.707,2.441,0
1539627912.274,42.969,38.086,44.922,41.992,51.270,0
1539627912.278,43.457,42.480,40.527,42.480,2.930,0
1539627912.282,42.969,35.156,36.133,45.898,-38.086,0
1539627912.285,54.199,21.973,34.180,50.293,55.176,0
1539627912.289,51.270,27.832,42.969,71.777,32.715,0
1539627912.293,52.246,36.133,46.875,57.617,11.719,0
1539627912.297,58.594,40.527,43.457,52.734,37.598,0
1539627912.301,46.875,39.551,40.039,61.035,36.621,0
1539627912.305,51.270,35.645,40.039,69.336,40.527,0
1539627912.309,66.406,26.367,39.062,55.664,49.316,0
1539627912.313,58.594,19.043,33.203,36.621,131.836,0
1539627912.317,56.152,17.090,37.109,34.180,78.125,0
1539627912.321,59.570,22.949,35.645,37.109,4.883,0
1539627912.324,57.617,34.668,35.156,41.992,47.852,0
1539627912.328,50.293,34.180,39.062,43.945,52.246,0
1539627912.332,56.152,27.832,33.203,38.574,27.344,0
1539627912.336,59.570,25.391,35.156,30.762,16.113,0
1539627912.340,57.617,20.508,35.156,37.109,-8.301,0
1539627912.344,44.434,24.902,33.691,62.988,18.066,0
1539627912.348,20.508,28.809,37.598,65.430,34.668,0
1539627912.352,20.996,27.344,41.016,59.570,-13.184,0
1539627912.356,23.926,29.785,39.062,84.961,14.160,0
1539627912.360,10.742,28.809,33.691,78.125,54.199,0
1539627912.364,12.695,25.879,37.109,37.598,51.270,0
1539627912.367,30.273,25.879,38.574,29.297,3.418,0
1539627912.371,26.367,27.832,40.527,29.785,-4.395,0
1539627912.375,20.020,31.250,45.410,19.531,34.180,0
1539627912.379,44.922,37.109,30.273,40.039,15.625,0
1539627912.383,55.664,38.086,25.391,58.594,5.859,0
1539627912.387,30.273,28.320,42.480,50.293,89.355,0
1539627912.391,11.719,22.461,43.457,44.434,35.645,0
1539627912.395,19.531,19.531,36.133,48.340,-22.461,0
1539627912.399,32.715,17.090,35.156,43.945,46.387,0
1539627912.403,24.902,20.996,45.898,40.527,31.738,0
1539627912.407,18.555,15.625,52.734,37.598,7.812,0
1539627912.410,17.090,5.371,47.363,33.691,23.926,0
1539627912.414,24.902,16.602,51.270,45.898,53.711,0
1539627912.418,29.785,27.344,43.945,50.781,37.598,0
1539627912.422,20.508,23.926,35.156,55.176,20.996,0
1539627912.426,12.207,25.879,41.016,74.219,30.762,0
1539627912.430,12.207,21.484,43.457,65.918,10.742,0
1539627912.434,17.090,18.555,43.457,32.715,-1.465,0
1539627912.438,22.949,18.555,40.039,24.414,-4.883,0
1539627912.442,20.020,17.090,38.086,33.203,20.020,0
1539627912.446,35.156,22.949,44.434,29.785,25.391,2
1539627912.449,48.340,22.461,44.434,32.227,10.254,0
1539627912.453,40.527,20.996,42.969,45.898,15.625,0
1539627912.457,34.180,27.832,41.504,54.688,40.039,0
1539627912.461,31.738,33.691,37.598,46.875,47.363,0
1539627912.465,15.625,33.203,39.551,44.922,32.227,0
1539627912.469,4.883,25.879,42.969,43.945,25.391,0
1539627912.473,15.137,24.414,41.992,46.387,18.066,0
1539627912.477,11.719,26.367,39.551,41.992,49.316,0
1539627912.481,12.695,21.973,41.016,43.457,29.785,0
1539627912.485,18.066,22.949,43.457,50.293,25.879,0
1539627912.489,27.344,29.785,45.898,52.734,41.016,0
1539627912.492,31.250,31.738,41.016,38.574,54.199,0
1539627912.496,21.973,34.668,35.645,8.789,72.266,0
1539627912.500,21.484,33.203,37.109,20.508,97.168,0
1539627912.504,20.508,34.668,39.062,41.504,41.992,0
1539627912.508,33.691,33.691,40.039,48.828,21.484,0
1539627912.512,44.922,29.297,36.133,42.969,41.504,0
1539627912.516,38.086,29.785,33.691,40.039,28.809,0
1539627912.520,36.133,24.902,43.945,55.664,58.594,0
1539627912.524,30.762,22.461,50.781,44.922,50.781,0
1539627912.528,36.621,24.902,53.223,43.945,-13.672,0
1539627912.532,41.504,25.391,51.270,50.781,-36.133,0
1539627912.535,43.945,21.484,52.734,52.734,15.137,0
1539627912.539,44.434,25.879,53.223,56.152,3.906,0
1539627912.543,38.574,32.715,43.945,58.105,36.133,0
1539627912.547,29.297,28.809,39.551,64.453,74.219,0
1539627912.551,19.043,21.973,40.039,72.266,42.969,0
1539627912.555,22.949,21.484,40.527,53.711,83.496,0
1539627912.559,24.902,24.902,34.180,21.484,45.410,0
1539627912.563,21.484,29.785,31.250,15.137,5.859,0
1539627912.567,27.344,23.926,34.668,28.320,27.832,0
1539627912.571,41.992,20.508,41.504,40.039,31.738,0
1539627912.574,50.293,19.043,45.410,57.129,11.230,0
1539627912.578,44.434,14.648,44.922,65.918,20.508,0
1539627912.582,47.363,26.367,49.805,45.410,32.715,0
1539627912.586,41.992,41.016,34.180,36.133,57.617,0
1539627912.590,31.250,42.480,22.461,38.086,88.867,0
1539627912.594,31.250,36.621,32.715,29.785,69.336,0
1539627912.598,22.461,37.109,33.691,28.320,38.574,0
1539627912.602,30.273,35.645,26.855,19.531,62.500,0
1539627912.606,36.133,24.902,26.855,21.973,54.199,0
1539627912.610,32.715,20.508,32.227,40.527,16.113,0
1539627912.614,30.273,29.785,25.391,58.594,7.812,0
1539627912.617,31.738,40.527,20.996,42.480,27.832,0
1539627912.621,42.480,44.434,25.879,27.832,32.715,0
1539627912.625,53.223,43.457,29.297,44.434,32.715,0
1539627912.629,53.711,45.898,42.480,59.570,72.266,0
1539627912.633,32.715,38.574,43.945,65.918,39.062,0
1539627912.637,34.668,21.484,24.902,57.129,-24.902,0
1539627912.641,47.363,21.973,6.348,49.316,0.977,0
1539627912.645,38.574,24.902,13.672,33.691,38.574,0
1539627912.649,42.480,29.297,27.832,-2.930,37.109,0
1539627912.653,39.062,36.133,27.344,17.578,16.602,0
1539627912.657,42.480,37.109,27.832,32.227,54.199,0
1539627912.660,62.988,38.086,41.016,32.715,52.734,0
1539627912.664,62.012,23.926,45.410,42.480,-22.949,0
1539627912.668,52.734,22.461,35.156,33.691,-9.277,0
1539627912.672,24.414,35.645,31.250,31.738,30.273,0
1539627912.676,0.488,29.785,31.738,36.133,15.625,0
1539627912.680,7.812,24.902,30.273,35.645,11.719,0
1539627912.684,19.531,34.668,31.738,41.016,25.391,0
1539627912.688,20.996,32.227,38.574,45.410,21.973,0
1539627912.692,16.602,23.926,35.156,59.570,67.871,0
1539627912.696,13.184,29.297,27.832,51.758,46.875,0
1539627912.699,25.391,35.156,28.809,37.598,38.086,0
1539627912.703,29.297,32.715,27.344,39.062,3.906,0
1539627912.707,26.367,28.809,25.879,44.922,-61.523,0
1539627912.711,41.992,29.785,23.438,50.781,-23.926,0
1539627912.715,41.992,37.598,35.156,62.988,62.988,0
1539627912.719,36.621,36.621,37.598,43.457,117.676,0
1539627912.723,43.945,24.414,32.715,9.277,111.328,0
1539627912.727,33.691,29.785,35.645,29.785,52.734,0
1539627912.731,15.625,32.227,35.156,61.035,12.695,0
1539627912.735,27.344,26.855,34.180,50.781,30.273,0
1539627912.739,22.461,27.832,32.715,38.574,6.348,0
1539627912.742,-1.465,28.320,37.598,59.570,-2.441,0
1539627912.746,-4.883,29.297,35.645,71.289,62.012,0
1539627912.750,3.906,32.715,37.598,82.520,51.758,0
1539627912.754,3.418,18.555,35.156,62.988,69.336,0
1539627912.758,6.348,12.695,32.227,25.879,75.684,0
1539627912.762,20.996,33.691,36.621,29.785,-17.578,0
1539627912.766,36.621,34.668,36.621,43.457,-41.992,0
1539627912.770,30.762,21.973,33.691,19.531,-33.203,0
1539627912.774,7.324,20.020,28.320,10.742,16.602,0
1539627912.778,1.953,16.113,27.832,38.086,14.648,0
1539627912.782,8.789,20.996,24.902,29.785,21.973,0
1539627912.785,13.672,26.367,27.344,35.645,73.730,0
1539627912.789,15.137,20.508,31.250,52.246,43.945,0
1539627912.793,22.949,21.484,30.762,49.805,35.156,0
1539627912.797,33.203,25.391,34.668,45.898,8.789,0
1539627912.801,19.043,26.367,37.109,27.344,-16.602,0
1539627912.805,19.531,23.926,36.621,20.508,7.812,0
1539627912.809,23.438,22.461,30.273,32.227,-22.949,0
1539627912.813,6.348,23.438,33.203,50.293,0.977,0
1539627912.817,8.789,21.973,36.621,65.430,61.035,0
1539627912.821,16.113,23.926,35.645,80.078,82.031,0
1539627912.824,12.207,26.855,36.621,65.918,29.785,0
1539627912.828,12.695,22.461,39.551,50.293,17.090,0
1539627912.832,25.879,23.438,40.039,55.664,57.617,0
1539627912.836,35.156,25.391,35.645,50.781,20.020,0
1539627912.840,26.367,27.344,40.039,56.641,72.754,0
1539627912.844,20.996,28.320,42.480,53.711,107.910,0
1539627912.848,17.090,26.855,42.480,37.109,71.289,0
1539627912.852,4.395,28.320,42.969,9.766,65.430,0
1539627912.856,-17.578,25.879,38.086,-23.438,45.898,0
1539627912.860,-17.578,21.484,31.250,-36.621,55.664,0
1539627912.864,-32.227,15.625,17.578,-41.992,4.395,0
1539627912.867,-67.383,22.461,9.277,-77.148,11.719,0
1539627912.871,-90.332,31.250,13.672,-102.539,67.871,0
1539627912.875,-113.770,32.227,18.555,-92.773,32.715,0
1539627912.879,-132.812,32.715,9.277,-90.332,48.340,0
1539627912.883,-136.719,33.203,10.254,-92.285,53.711,0
1539627912.887,-148.926,35.156,9.766,-134.277,63.477,0
1539627912.891,-146.973,35.645,8.301,-163.574,84.473,0
1539627912.895,-152.832,35.156,12.695,-142.090,57.617,0
1539627912.899,-165.039,40.039,11.230,-133.301,14.160,0
1539627912.903,-172.363,40.039,16.602,-127.930,8.789,0
1539627912.907,-174.316,39.551,17.090,-125.000,11.230,0
1539627912.910,-164.551,43.457,11.719,-144.531,15.625,0
1539627912.914,-175.781,44.434,16.602,-161.133,61.523,0
1539627912.918,-182.617,43.945,20.020,-181.641,92.285,0
1539627912.922,-176.758,38.574,19.531,-182.617,90.820,0
1539627912.926,-170.410,37.598,20.508,-163.086,62.988,0
1539627912.930,-159.668,42.480,22.949,-147.461,27.344,0
1539627912.934,-142.090,39.551,21.484,-131.348,62.012,0
1539627912.938,-113.281,34.668,22.461,-116.211,57.129,0
1539627912.942,-100.098,39.062,25.879,-114.258,35.645,0
1539627912.946,-114.746,33.203,29.297,-120.605,53.711,0
1539627912.949,-118.652,23.438,27.344,-101.074,2.441,0
1539627912.953,-99.121,19.043,27.832,-77.637,-23.926,0
1539627912.957,-74.219,6.836,36.621,-61.523,22.461,0
1539627912.961,-60.547,1.465,39.551,-38.086,13.672,0
1539627912.965,-46.875,9.766,33.203,-23.438,34.180,0
1539627912.969,-33.203,17.090,27.832,-13.672,59.570,0
1539627912.973,-20.996,13.184,33.203,18.555,-10.254,0
1539627912.977,-18.066,3.418,44.434,51.758,-44.434,0
1539627912.981,-0.488,5.371,39.551,81.543,29.297,0
1539627912.985,35.156,-2.441,26.855,73.730,36.621,0
1539627912.989,36.133,-13.672,29.297,48.340,-2.930,0
1539627912.992,37.598,5.859,29.785,73.242,30.273,0
1539627912.996,67.871,23.926,28.809,88.867,11.719,0
1539627913.000,97.168,23.926,33.203,71.777,1.953,0
1539627913.004,114.746,16.602,27.832,51.758,49.316,0
1539627913.008,100.098,10.742,25.879,73.242,47.363,0
1539627913.012,87.402,4.883,29.297,92.285,-16.113,0
1539627913.016,99.609,4.883,29.785,81.543,-35.156,0
1539627913.020,86.914,9.277,34.668,87.891,-7.324,0
1539627913.024,68.359,9.277,34.668,90.820,18.555,0
1539627913.028,74.219,6.836,35.645,106.934,50.781,0
1539627913.032,76.660,2.930,35.645,130.859,49.805,0
1539627913.035,101.074,3.906,36.133,136.719,31.738,0
1539627913.039,124.512,4.883,38.086,115.723,25.879,0
1539627913.043,128.418,4.883,32.227,115.234,64.453,0
1539627913.047,140.625,10.742,32.715,170.898,95.703,0
1539627913.051,138.184,13.672,38.086,202.148,85.938,0
1539627913.055,102.051,9.277,41.504,201.660,51.270,0
1539627913.059,85.449,6.836,38.086,177.246,-20.508,0
1539627913.063,107.422,11.230,29.297,115.234,-11.230,0
1539627913.067,138.672,15.625,27.344,75.195,22.461,0
1539627913.071,137.207,16.602,29.297,64.941,34.180,0
1539627913.074,108.887,13.672,29.297,58.105,49.805,0
1539627913.078,95.215,11.230,30.762,73.730,39.551,0
1539627913.082,72.266,9.277,38.574,111.328,4.883,0
1539627913.086,71.777,6.348,38.574,141.113,3.418,0
1539627913.090,87.891,11.719,39.062,152.344,51.270,0
1539627913.094,84.961,16.113,42.480,146.484,38.086,0
1539627913.098,83.984,14.160,38.086,138.672,2.930,0
1539627913.102,98.633,14.648,34.180,90.820,5.371,0
1539627913.106,93.750,14.160,31.250,46.387,53.223,0
1539627913.110,104.980,13.672,29.785,52.734,49.805,0
1539627913.114,107.422,11.230,27.832,96.191,7.324,0
1539627913.117,87.891,7.812,30.762,160.156,47.852,0
1539627913.121,92.773,4.883,34.180,190.918,115.234,0
1539627913.125,104.004,5.859,35.645,152.832,83.008,0
1539627913.129,89.844,12.207,27.344,77.637,62.988,0
1539627913.133,35.645,12.207,22.461,32.715,67.383,0
1539627913.137,7.324,8.301,31.738,33.691,31.738,0
1539627913.141,22.461,12.207,29.785,8.301,57.129,0
1539627913.145,34.668,18.066,32.227,-33.203,97.656,0
1539627913.149,46.387,16.602,39.551,-22.949,43.945,0
1539627913.153,9.766,23.926,13.672,8.301,25.391,0
1539627913.157,-14.160,42.480,23.438,45.898,80.078,0
1539627913.160,-27.344,12.207,59.082,39.062,104.492,0
1539627913.164,-89.355,2.441,55.176,-17.578,38.574,0
1539627913.168,-82.520,50.293,52.734,21.973,29.297,0
1539627913.172,-75.195,59.570,57.617,80.566,78.613,0
1539627913.176,-115.234,41.504,96.191,-5.371,112.305,0
1539627913.180,-131.348,70.312,92.773,-119.629,85.449,0
