timestamps,TP9,AF7,AF8,TP10,Right AUX,Marker0
1539626682.669,41.504,24.414,39.551,202.148,61.035,0
1539626682.673,38.086,21.973,45.410,155.762,87.891,0
1539626682.677,36.621,22.949,45.898,170.410,81.055,0
1539626682.681,45.410,21.484,48.828,198.730,13.672,0
1539626682.685,52.734,23.926,45.898,214.844,12.695,0
1539626682.689,52.734,23.438,51.758,209.961,21.973,0
1539626682.692,40.527,22.949,56.641,184.082,12.695,0
1539626682.696,38.574,24.414,52.246,191.406,6.836,0
1539626682.700,48.340,24.414,52.734,198.242,13.672,0
1539626682.704,50.781,21.973,53.223,165.527,45.898,0
1539626682.708,44.922,24.414,49.316,163.086,79.590,0
1539626682.712,21.973,26.855,47.363,200.684,52.734,0
1539626682.716,27.344,28.320,54.199,186.523,55.664,0
1539626682.720,50.781,35.156,51.758,174.805,44.434,0
1539626682.724,52.246,31.738,46.875,168.457,7.324,0
1539626682.728,60.059,27.832,47.363,143.555,12.695,0
1539626682.732,59.082,31.250,43.457,176.758,67.383,0
1539626682.735,34.668,27.344,49.805,192.871,104.980,0
1539626682.739,33.691,23.438,48.340,158.691,82.520,0
1539626682.743,47.363,28.809,35.645,176.270,69.336,0
1539626682.747,40.527,33.691,36.621,181.152,32.227,0
1539626682.751,50.781,33.691,35.156,162.109,-29.297,0
1539626682.755,47.363,31.250,32.227,175.781,-5.859,0
1539626682.759,33.203,31.250,37.109,176.758,7.324,0
1539626682.763,41.992,31.738,34.668,150.879,11.719,0
1539626682.767,43.457,32.227,27.832,174.316,72.754,0
1539626682.771,35.156,27.344,34.180,165.039,65.430,0
1539626682.775,23.438,22.949,30.762,122.559,23.926,0
1539626682.778,33.691,30.273,20.996,156.738,73.242,0
1539626682.782,49.316,39.062,23.926,169.922,37.598,0
1539626682.786,47.363,40.527,22.461,147.461,57.129,0
1539626682.790,43.945,33.691,24.902,144.043,36.133,0
1539626682.794,32.715,30.273,36.133,158.691,9.277,0
1539626682.798,38.574,34.668,42.480,172.852,67.871,0
1539626682.802,41.992,36.133,35.645,164.551,38.574,0
1539626682.806,45.410,37.109,27.832,131.348,-8.301,0
1539626682.810,46.875,39.062,28.320,154.297,-7.812,0
1539626682.814,36.621,41.992,27.344,166.992,10.742,0
1539626682.817,38.086,36.133,32.227,163.086,-12.695,0
1539626682.821,37.109,29.785,43.457,149.902,-0.977,0
1539626682.825,30.762,36.133,32.715,183.105,8.789,0
1539626682.829,38.574,41.992,22.461,202.148,-41.992,0
1539626682.833,33.203,41.016,30.273,174.805,-24.414,0
1539626682.837,15.625,33.691,38.574,182.617,12.695,0
1539626682.841,6.348,38.574,34.668,149.902,4.883,0
1539626682.845,-2.930,41.504,25.391,119.629,40.039,0
1539626682.849,8.301,37.109,25.879,175.781,14.648,1
1539626682.853,19.531,32.715,36.133,191.406,10.254,0
1539626682.857,26.367,33.203,47.852,156.250,-2.441,0
1539626682.860,34.668,39.062,38.086,171.875,-6.348,0
1539626682.864,34.668,43.945,18.555,207.031,22.461,0
1539626682.868,40.527,47.852,26.367,201.172,4.883,0
1539626682.872,39.551,44.922,29.785,154.297,-4.395,0
1539626682.876,20.508,39.062,38.574,158.203,37.598,0
1539626682.880,-24.414,36.133,45.410,175.293,51.758,0
1539626682.884,-66.406,32.715,34.668,135.254,30.273,0
1539626682.888,-59.570,44.922,19.531,94.238,47.852,0
1539626682.892,-67.383,50.293,9.766,120.117,50.781,0
1539626682.896,-81.543,55.664,19.531,152.832,25.391,0
1539626682.900,-82.520,60.547,23.438,120.117,17.578,0
1539626682.903,-83.008,59.570,14.648,82.031,18.555,0
1539626682.907,-71.777,56.641,12.695,91.309,21.484,0
1539626682.911,-79.590,53.223,25.391,64.941,19.531,0
1539626682.915,-93.262,61.035,20.020,47.363,48.828,0
1539626682.919,-105.957,70.801,12.207,44.434,54.199,0
1539626682.923,-123.535,68.359,26.367,28.809,30.273,0
1539626682.927,-119.629,59.570,31.250,16.113,57.129,0
1539626682.931,-100.586,66.406,20.020,27.832,39.551,0
1539626682.935,-101.074,69.336,26.855,21.973,-4.883,0
1539626682.939,-111.816,61.035,40.527,12.207,-24.414,0
1539626682.942,-116.211,53.711,34.668,27.832,-0.488,0
1539626682.946,-103.027,52.246,29.297,47.363,-4.395,0
1539626682.950,-67.383,54.199,34.668,76.172,50.293,0
1539626682.954,-54.688,50.781,31.738,83.008,100.586,0
1539626682.958,-47.852,47.363,24.902,87.891,24.414,0
1539626682.962,-34.668,46.387,38.574,113.770,28.809,0
1539626682.966,-23.926,42.969,48.340,125.977,29.785,0
1539626682.970,-1.953,39.551,38.574,123.535,55.664,0
1539626682.974,11.719,33.691,28.320,144.043,105.469,0
1539626682.978,11.719,28.320,40.527,140.625,106.934,0
1539626682.982,30.273,24.902,45.410,92.773,60.059,0
1539626682.985,33.691,20.996,42.480,124.512,30.273,0
1539626682.989,37.109,24.414,43.457,130.371,59.082,0
1539626682.993,46.875,24.414,37.109,145.020,50.293,0
1539626682.997,36.621,16.602,40.039,151.367,10.742,0
1539626683.001,34.180,16.602,52.734,140.137,30.273,0
1539626683.005,65.918,20.996,44.922,145.996,54.199,0
1539626683.009,80.078,20.508,26.855,137.207,30.273,0
1539626683.013,65.430,19.043,29.785,142.578,52.246,0
1539626683.017,71.777,16.602,31.738,142.578,67.383,0
1539626683.021,77.148,15.137,37.109,130.371,34.668,0
1539626683.025,70.801,10.742,48.828,148.926,66.406,0
1539626683.028,77.148,9.277,50.781,149.902,79.590,0
1539626683.032,69.824,17.090,45.898,107.422,35.156,0
1539626683.036,67.871,18.066,40.527,105.469,28.809,0
1539626683.040,67.871,10.254,47.363,139.160,60.059,0
1539626683.044,71.289,13.672,46.387,118.652,39.062,0
1539626683.048,90.332,20.996,33.691,113.281,-10.742,0
1539626683.052,84.473,18.555,35.645,168.457,15.137,0
1539626683.056,71.777,17.578,39.551,166.992,63.477,0
1539626683.060,84.473,20.996,40.039,123.047,41.992,0
1539626683.064,83.496,19.531,37.598,125.488,42.969,0
1539626683.067,74.219,17.090,35.645,139.648,61.523,0
1539626683.071,74.707,18.555,37.109,136.230,52.734,0
1539626683.075,77.637,19.531,42.480,125.977,87.402,0
1539626683.079,70.801,23.438,39.062,76.660,83.496,0
1539626683.083,83.496,27.832,30.762,94.727,63.965,0
1539626683.087,84.473,23.926,35.156,128.418,27.344,0
1539626683.091,73.730,20.020,34.668,113.281,24.414,0
1539626683.095,82.520,23.926,28.320,118.164,58.594,0
1539626683.099,76.172,24.902,36.621,117.676,51.758,0
1539626683.103,58.594,21.484,40.527,125.977,30.762,0
1539626683.107,44.434,18.555,47.363,122.559,21.484,0
1539626683.110,57.129,24.902,46.875,100.586,85.449,0
1539626683.114,73.242,30.762,29.785,56.152,70.801,0
1539626683.118,71.289,31.738,29.297,18.066,12.207,0
1539626683.122,63.477,29.297,30.762,77.637,73.242,0
1539626683.126,57.129,22.461,31.738,114.746,73.730,0
1539626683.130,63.965,24.902,34.668,104.492,18.066,0
1539626683.134,59.082,25.391,46.875,83.008,50.293,0
1539626683.138,43.457,25.391,49.316,53.711,28.809,0
1539626683.142,54.199,33.203,32.227,61.035,-4.883,0
1539626683.146,56.641,35.156,28.809,45.898,38.574,0
1539626683.150,44.922,25.879,35.645,64.453,46.387,0
1539626683.153,46.875,20.996,46.387,84.473,5.371,0
1539626683.157,55.664,21.973,38.086,63.965,20.020,0
1539626683.161,53.223,22.949,29.297,83.496,74.219,0
1539626683.165,46.387,24.902,36.133,94.727,40.039,0
1539626683.169,38.086,27.832,39.062,78.125,17.578,0
1539626683.173,50.293,33.203,39.062,71.777,19.043,0
1539626683.177,47.852,28.809,38.086,59.570,1.465,0
1539626683.181,41.016,25.391,44.434,57.129,20.020,0
1539626683.185,49.316,35.156,46.875,87.402,82.031,0
1539626683.189,40.039,35.156,34.180,84.961,97.656,0
1539626683.192,41.016,21.484,37.598,68.848,-9.766,0
1539626683.196,58.105,24.902,46.387,70.801,-29.785,0
1539626683.200,40.527,35.645,48.340,85.938,-6.836,0
1539626683.204,12.207,37.109,37.109,46.875,15.137,0
1539626683.208,21.973,30.273,30.273,24.902,37.598,0
1539626683.212,41.016,31.250,22.949,68.359,62.500,0
1539626683.216,39.062,39.551,12.207,24.902,43.457,0
1539626683.220,31.250,39.062,14.160,-4.883,59.082,0
1539626683.224,24.902,37.109,22.461,33.691,35.156,0
1539626683.228,19.531,34.668,28.320,40.527,-7.324,0
1539626683.232,23.926,31.250,22.461,47.852,60.059,0
1539626683.235,29.297,32.715,18.555,68.848,40.527,0
1539626683.239,23.926,34.180,22.461,45.898,3.906,0
1539626683.243,32.715,31.250,23.438,45.898,20.020,0
1539626683.247,45.898,33.203,21.484,49.805,14.648,0
1539626683.251,28.809,34.180,22.949,25.879,20.508,0
1539626683.255,28.809,33.691,31.738,58.105,49.316,0
1539626683.259,49.805,34.180,37.598,95.703,34.180,0
1539626683.263,41.016,36.133,25.879,94.727,-13.184,0
1539626683.267,29.297,38.574,15.137,55.176,-23.438,0
1539626683.271,40.527,39.062,17.578,72.266,18.066,0
1539626683.275,38.086,35.645,31.250,91.797,21.973,0
1539626683.278,34.668,35.156,40.039,102.051,-9.766,0
1539626683.282,37.598,36.133,30.273,62.500,11.719,0
1539626683.286,22.461,36.621,20.508,41.504,51.758,0
1539626683.290,19.043,37.598,20.996,106.934,85.938,0
1539626683.294,23.438,36.133,21.973,118.164,65.430,0
1539626683.298,33.691,34.668,21.484,118.164,-37.109,0
1539626683.302,39.551,34.180,19.043,121.094,-63.965,0
1539626683.306,31.738,33.203,28.320,108.887,0.488,0
1539626683.310,26.855,29.297,35.156,108.398,20.996,0
1539626683.314,17.090,28.809,30.273,125.488,74.707,0
1539626683.317,26.855,32.227,20.996,125.488,107.910,0
1539626683.321,29.785,26.367,16.602,145.508,16.602,0
1539626683.325,24.902,24.902,20.996,167.480,29.297,0
1539626683.329,33.203,27.832,23.438,151.855,72.266,0
1539626683.333,29.297,24.902,25.879,117.676,41.504,0
1539626683.337,24.414,26.367,32.715,143.555,42.969,0
1539626683.341,27.344,32.715,20.508,147.461,40.527,0
1539626683.345,31.738,34.180,9.277,128.906,28.320,0
1539626683.349,15.137,31.738,17.090,146.973,46.387,0
1539626683.353,6.836,33.691,17.578,147.461,76.172,0
1539626683.357,20.508,32.715,14.648,147.949,10.254,0
1539626683.360,20.508,28.809,18.066,147.949,-22.949,0
1539626683.364,17.090,29.785,16.602,152.344,22.461,0
1539626683.368,26.367,34.668,8.301,152.344,41.992,0
1539626683.372,30.762,34.668,10.742,168.945,98.633,0
1539626683.376,37.109,35.645,16.113,171.875,73.242,0
1539626683.380,39.062,40.527,18.555,171.387,23.926,0
1539626683.384,35.156,32.227,29.297,138.672,25.391,0
1539626683.388,29.785,25.879,36.621,142.578,62.012,0
1539626683.392,24.414,27.832,21.973,147.461,88.379,0
1539626683.396,36.133,31.250,16.113,150.879,36.621,0
1539626683.400,23.926,38.574,25.879,170.410,-35.645,0
1539626683.403,4.395,36.133,28.320,150.879,27.344,0
1539626683.407,13.672,36.621,16.602,146.973,27.344,0
1539626683.411,11.230,38.086,9.766,128.906,-27.344,0
1539626683.415,-6.348,30.762,17.090,109.375,-2.441,0
1539626683.419,-7.812,34.180,15.137,95.215,21.484,0
1539626683.423,2.441,38.574,15.137,85.938,53.711,0
1539626683.427,6.348,39.062,25.391,107.422,3.418,0
1539626683.431,12.695,35.645,32.715,119.141,17.090,0
1539626683.435,22.461,39.551,19.531,116.699,31.250,0
1539626683.439,21.973,44.922,13.184,127.930,-34.668,0
1539626683.442,15.137,41.504,25.879,123.047,-13.184,0
1539626683.446,17.578,37.598,28.320,107.422,-7.324,0
1539626683.450,26.367,35.156,29.785,105.957,-1.953,0
1539626683.454,25.879,39.062,30.762,109.375,30.273,0
1539626683.458,14.648,37.598,22.461,120.117,53.711,0
1539626683.462,4.883,34.180,21.973,107.422,28.809,0
1539626683.466,19.531,37.598,29.785,106.445,-16.602,0
1539626683.470,28.320,41.504,32.715,116.699,36.621,0
1539626683.474,26.855,41.992,29.785,108.887,46.387,0
1539626683.478,32.227,39.551,24.902,109.375,10.254,0
1539626683.482,34.180,40.039,28.320,85.938,38.574,0
1539626683.485,32.227,39.551,34.668,79.102,48.340,0
1539626683.489,22.949,39.062,22.949,78.125,32.227,0
1539626683.493,16.113,37.109,22.461,79.102,8.789,0
1539626683.497,24.902,36.621,27.344,58.594,9.766,0
1539626683.501,25.879,39.551,22.461,47.363,37.109,0
1539626683.505,20.020,36.133,20.996,69.336,45.410,0
1539626683.509,19.531,31.738,17.578,60.547,80.078,0
1539626683.513,32.227,34.180,20.996,39.551,49.805,0
1539626683.517,22.461,37.598,28.320,32.715,66.406,0
1539626683.521,18.555,37.598,24.902,37.109,136.719,0
1539626683.525,27.344,35.645,20.508,41.016,104.004,0
1539626683.528,23.926,38.574,21.973,58.105,52.246,0
1539626683.532,32.227,39.551,25.879,58.105,50.293,0
1539626683.536,24.902,36.621,34.180,43.945,71.777,0
1539626683.540,2.930,40.039,38.574,42.969,36.621,0
1539626683.544,9.766,43.457,29.297,25.391,21.973,0
1539626683.548,22.461,41.504,23.438,23.926,45.410,0
1539626683.552,25.391,40.039,22.949,39.062,71.777,0
1539626683.556,25.391,37.109,26.855,21.484,46.875,0
1539626683.560,22.949,34.668,33.691,13.672,20.020,0
1539626683.564,12.207,36.133,39.062,43.945,11.230,0
1539626683.567,5.859,39.551,34.668,42.480,20.020,0
1539626683.571,16.602,37.598,22.949,16.113,74.219,0
1539626683.575,18.066,36.621,20.020,31.250,54.199,0
1539626683.579,11.719,33.691,24.902,47.363,25.391,0
1539626683.583,19.043,27.344,32.227,33.203,54.199,0
1539626683.587,31.738,32.715,28.320,53.223,39.062,0
1539626683.591,32.227,37.109,27.344,70.312,-4.883,0
1539626683.595,38.574,38.086,36.621,50.293,-29.297,0
1539626683.599,39.551,46.387,31.738,55.664,-48.340,0
1539626683.603,22.461,44.922,20.508,59.570,-29.297,0
1539626683.607,18.555,37.598,20.996,52.734,-6.836,0
1539626683.610,9.277,34.180,30.762,59.570,-12.695,0
1539626683.614,10.254,29.297,45.410,49.805,5.371,0
1539626683.618,31.250,28.320,42.480,53.711,21.484,0
1539626683.622,52.734,33.691,34.180,72.266,38.574,0
1539626683.626,39.551,40.039,28.809,78.613,25.391,0
1539626683.630,19.531,40.527,22.461,86.426,4.395,0
1539626683.634,16.602,35.645,26.855,64.941,25.391,0
1539626683.638,9.277,29.785,42.480,70.312,67.383,0
1539626683.642,19.531,27.832,41.992,70.801,27.832,0
1539626683.646,21.973,32.715,24.902,65.430,46.875,0
1539626683.650,25.391,38.086,21.973,78.613,36.133,0
1539626683.653,29.297,37.598,26.367,73.730,-49.805,0
1539626683.657,23.438,35.156,30.762,81.055,19.531,0
1539626683.661,45.898,36.133,34.180,91.309,138.184,0
1539626683.665,58.594,36.133,36.621,70.312,123.535,0
1539626683.669,58.105,37.598,33.203,93.750,42.480,0
1539626683.673,55.176,40.039,25.391,100.098,38.086,0
1539626683.677,30.273,37.598,30.762,90.332,94.238,0
1539626683.681,23.438,36.133,33.203,104.004,64.453,0
1539626683.685,31.738,38.574,33.203,103.516,11.719,0
1539626683.689,33.203,35.645,41.992,118.164,27.344,0
1539626683.692,35.645,32.227,40.039,100.098,98.145,0
1539626683.696,36.133,36.621,32.715,90.332,84.961,0
1539626683.700,24.902,34.668,29.297,109.863,53.711,0
1539626683.704,24.902,33.691,26.855,118.164,60.059,0
1539626683.708,40.527,35.156,30.273,115.234,-6.348,0
1539626683.712,35.645,34.668,36.133,99.609,-21.973,0
1539626683.716,29.785,32.715,35.156,104.004,-5.859,0
1539626683.720,25.879,30.762,31.738,104.492,-26.367,0
1539626683.724,28.320,31.738,35.645,124.512,-6.348,0
1539626683.728,20.996,32.227,42.969,129.883,85.449,0
1539626683.732,23.438,38.086,33.203,127.441,65.430,0
1539626683.735,35.156,41.016,21.484,150.879,2.441,0
1539626683.739,36.621,37.598,26.855,148.438,56.641,0
1539626683.743,40.039,35.156,29.297,155.273,30.762,0
1539626683.747,35.645,32.227,30.762,137.695,-9.277,0
1539626683.751,21.973,34.180,37.109,131.836,13.184,0
1539626683.755,30.762,37.109,40.039,166.992,59.082,0
1539626683.759,36.133,38.086,39.062,126.953,70.801,0
1539626683.763,40.527,45.410,20.996,149.414,73.730,0
1539626683.767,33.691,48.340,17.090,159.180,49.316,0
1539626683.771,20.020,36.133,40.039,141.602,-2.441,0
1539626683.775,3.906,28.809,45.410,157.227,-20.508,0
1539626683.778,6.836,37.598,32.715,156.250,2.930,0
1539626683.782,20.508,38.086,32.227,150.879,57.129,0
1539626683.786,20.020,33.203,35.156,138.672,99.609,0
1539626683.790,20.508,35.645,33.691,136.230,96.191,0
1539626683.794,20.508,35.645,33.691,132.812,75.684,0
1539626683.798,24.414,37.109,29.297,127.441,101.562,0
1539626683.802,18.066,35.645,30.762,107.910,63.965,0
1539626683.806,16.113,28.320,38.086,125.977,9.277,0
1539626683.810,22.461,29.785,39.551,154.297,6.836,0
1539626683.814,21.973,36.621,33.691,165.527,-3.906,0
1539626683.817,33.203,37.109,27.832,162.598,9.766,0
1539626683.821,28.809,36.133,33.203,150.879,54.688,0
1539626683.825,11.230,39.062,41.016,165.039,26.367,0
1539626683.829,18.555,37.598,43.457,160.645,32.227,0
1539626683.833,25.879,34.668,34.180,129.395,75.195,0
1539626683.837,18.555,36.621,27.344,165.039,89.355,0
1539626683.841,21.973,35.645,35.156,185.547,47.852,0
1539626683.845,21.973,30.273,36.133,159.180,22.461,0
1539626683.849,17.090,30.273,30.273,158.203,46.387,0
1539626683.853,14.648,28.320,33.691,162.109,42.480,0
1539626683.857,12.207,28.809,33.203,147.949,42.969,0
1539626683.860,19.531,34.668,31.250,159.668,22.949,0
1539626683.864,20.508,33.203,24.414,176.270,32.715,0
1539626683.868,20.020,33.691,25.391,161.621,33.203,0
1539626683.872,30.762,36.621,28.809,162.109,-20.508,0
1539626683.876,32.715,35.645,27.344,183.105,5.371,0
1539626683.880,20.020,30.762,35.645,158.203,30.273,0
1539626683.884,20.996,32.715,41.504,138.184,26.367,0
1539626683.888,24.902,35.156,39.551,150.879,20.020,0
1539626683.892,28.320,34.668,34.668,160.156,27.344,0
1539626683.896,22.461,37.109,32.227,174.316,22.949,0
1539626683.900,24.902,34.180,34.668,162.109,29.297,0
1539626683.903,42.480,31.738,34.668,119.141,-10.254,0
1539626683.907,30.273,35.645,33.203,104.980,40.527,0
1539626683.911,33.691,38.574,34.668,134.277,61.035,0
1539626683.915,46.387,38.086,35.156,146.484,8.789,0
1539626683.919,34.668,39.062,29.785,131.836,39.551,0
1539626683.923,33.691,38.086,36.133,119.141,62.988,0
1539626683.927,39.062,37.109,44.922,127.441,17.578,0
1539626683.931,38.086,43.457,40.039,141.602,2.441,0
1539626683.935,42.480,50.781,38.086,118.652,73.730,0
1539626683.939,31.738,46.387,38.574,123.047,77.148,0
1539626683.942,20.020,34.180,35.156,119.141,-26.855,0
1539626683.946,17.578,31.250,29.297,102.051,-55.664,0
1539626683.950,7.812,36.133,29.785,77.637,8.301,0
1539626683.954,-0.977,41.016,38.086,55.664,11.230,0
1539626683.958,-12.695,38.574,27.344,55.176,5.859,0
1539626683.962,-26.367,43.945,22.461,46.387,41.504,0
1539626683.966,-36.621,52.246,26.855,48.828,-5.371,0
1539626683.970,-50.293,57.129,21.484,52.246,-13.184,0
1539626683.974,-48.828,63.965,20.020,11.719,41.504,0
1539626683.978,-65.918,58.594,22.461,-4.395,68.848,0
1539626683.982,-85.938,53.711,25.391,-7.812,40.527,0
1539626683.985,-87.402,63.965,18.555,-22.461,-43.945,0
1539626683.989,-96.191,62.988,20.508,-16.113,16.113,0
1539626683.993,-91.309,62.012,23.438,-16.113,11.719,0
1539626683.997,-90.820,67.383,18.555,-27.344,-24.902,0
1539626684.001,-98.633,70.801,17.090,-43.945,6.836,0
1539626684.005,-102.539,65.918,17.090,-50.293,-8.789,0
1539626684.009,-97.168,58.105,17.578,-37.598,-12.695,0
1539626684.013,-75.684,56.152,16.113,-22.461,13.184,0
1539626684.017,-69.336,49.805,20.508,-26.855,28.809,0
1539626684.021,-72.754,43.945,27.832,-17.578,38.574,0
1539626684.025,-66.895,42.480,29.297,-2.930,68.848,0
1539626684.028,-62.012,39.551,29.297,-9.277,47.363,0
1539626684.032,-34.668,38.086,34.668,-14.648,11.230,0
1539626684.036,-20.020,39.062,34.668,-1.953,15.137,0
1539626684.040,-28.809,39.062,29.785,24.414,71.289,0
1539626684.044,-19.531,33.203,34.668,38.086,85.938,0
1539626684.048,-7.812,29.297,31.250,62.988,44.434,0
1539626684.052,-5.371,30.273,28.320,57.129,8.789,0
1539626684.056,11.719,28.809,34.668,32.227,-15.137,0
1539626684.060,26.367,25.391,32.227,35.156,34.180,0
1539626684.064,31.738,24.414,21.484,37.109,-4.883,0
1539626684.067,32.715,23.926,22.949,64.453,1.953,0
1539626684.071,41.016,20.996,27.344,84.961,38.574,0
1539626684.075,56.152,24.414,29.297,80.566,-8.301,0
1539626684.079,58.105,20.020,35.156,57.129,33.691,0
1539626684.083,49.805,14.160,31.738,66.895,59.570,0
1539626684.087,64.453,15.625,27.832,73.242,68.359,0
1539626684.091,82.520,19.531,38.574,78.613,79.102,2
1539626684.095,68.848,19.531,41.016,89.844,82.520,0
1539626684.099,69.336,18.555,36.621,105.957,53.711,0
1539626684.103,82.520,15.625,36.621,112.793,49.805,0
1539626684.107,66.895,11.230,36.621,71.777,80.566,0
1539626684.110,60.547,12.695,38.086,96.680,39.062,0
1539626684.114,71.777,13.672,42.480,122.070,24.902,0
1539626684.118,75.684,15.137,41.504,108.398,69.824,0
1539626684.122,73.730,17.578,35.645,120.605,54.688,0
1539626684.126,72.754,15.625,44.922,128.418,40.527,0
1539626684.130,74.707,18.066,41.504,119.141,50.781,0
1539626684.134,71.777,15.137,32.227,128.906,70.312,0
1539626684.138,75.195,14.160,40.039,136.230,25.879,0
1539626684.142,70.312,18.555,41.992,125.000,-2.441,0
1539626684.146,62.500,17.578,42.969,124.023,74.707,0
1539626684.150,72.266,17.578,45.898,125.488,95.703,0
1539626684.153,83.008,23.926,40.527,140.625,-2.930,0
1539626684.157,78.125,27.832,32.715,162.109,-47.852,0
1539626684.161,71.777,24.902,33.691,154.785,8.301,0
1539626684.165,71.777,22.461,35.645,141.602,55.176,0
1539626684.169,68.848,21.484,40.527,109.863,67.871,0
1539626684.173,72.754,21.484,39.062,134.766,34.180,0
1539626684.177,63.477,21.484,39.551,163.574,14.648,0
1539626684.181,59.570,24.414,38.086,151.855,28.320,0
1539626684.185,56.641,23.438,36.133,145.996,14.160,0
1539626684.189,56.641,22.949,39.062,139.648,-16.602,0
1539626684.192,68.359,25.879,38.086,137.207,-26.367,0
1539626684.196,59.570,26.367,40.039,133.301,-46.387,0
1539626684.200,45.410,25.391,40.527,136.719,-30.762,0
1539626684.204,54.688,28.320,32.715,141.602,-37.598,0
1539626684.208,67.383,28.320,29.785,142.090,-20.996,0
1539626684.212,70.801,26.367,30.762,160.156,6.836,0
1539626684.216,62.500,29.297,31.738,136.230,12.207,0
1539626684.220,53.223,30.762,34.180,115.234,20.508,0
1539626684.224,56.152,32.227,32.715,135.742,71.289,0
1539626684.228,52.734,32.715,24.414,134.766,88.379,0
1539626684.232,47.363,32.715,22.461,127.441,70.312,0
1539626684.235,55.176,36.133,30.762,145.020,108.887,0
1539626684.239,53.711,38.574,33.691,115.723,111.328,0
1539626684.243,54.199,31.250,38.086,113.281,104.004,0
1539626684.247,56.641,23.438,43.945,153.809,58.594,0
1539626684.251,61.523,33.203,39.062,144.043,86.914,0
1539626684.255,54.199,43.945,27.832,119.629,116.211,0
1539626684.259,41.016,41.016,23.926,113.770,40.527,0
1539626684.263,43.457,42.480,22.949,122.070,46.875,0
1539626684.267,50.781,44.434,27.832,96.191,42.969,0
1539626684.271,48.828,42.969,21.973,98.145,29.785,0
1539626684.275,47.852,43.945,14.160,125.488,20.996,0
1539626684.278,53.223,40.527,21.973,124.512,28.320,0
1539626684.282,58.594,39.062,29.785,120.117,72.754,0
1539626684.286,61.523,41.016,28.320,99.609,90.820,0
1539626684.290,61.523,42.969,29.297,81.543,30.762,0
1539626684.294,63.965,44.922,29.297,98.633,-5.371,0
1539626684.298,52.734,41.016,31.250,86.426,-8.789,0
1539626684.302,44.922,38.086,33.691,94.238,-7.324,0
1539626684.306,40.527,37.598,32.715,116.699,10.742,0
1539626684.310,42.480,36.621,37.109,73.730,0.000,0
1539626684.314,45.410,36.621,26.855,66.406,46.875,0
1539626684.317,48.828,37.109,17.578,98.633,31.250,0
1539626684.321,51.270,35.645,23.438,115.234,-8.301,0
1539626684.325,55.176,35.156,29.297,119.629,13.672,0
1539626684.329,51.270,35.645,35.156,104.492,-4.883,0
1539626684.333,44.922,35.645,36.621,93.750,1.953,0
1539626684.337,42.969,31.738,30.762,90.332,37.109,0
1539626684.341,35.156,29.297,34.668,80.566,34.668,0
1539626684.345,28.320,26.855,39.062,78.613,65.918,0
1539626684.349,25.391,27.344,29.785,95.215,68.848,0
1539626684.353,38.086,29.297,27.344,97.656,37.109,0
1539626684.357,47.852,27.832,33.203,88.867,62.988,0
1539626684.360,46.875,32.227,31.250,88.867,66.895,0
1539626684.364,38.574,34.180,34.668,92.773,37.109,0
1539626684.368,40.527,33.691,41.992,110.352,35.645,0
1539626684.372,47.852,32.227,43.457,96.680,83.496,0
1539626684.376,42.969,32.715,41.992,108.887,8.301,0
1539626684.380,41.992,36.133,36.621,120.605,-16.602,0
1539626684.384,48.340,34.668,39.551,96.191,11.719,0
1539626684.388,53.711,35.156,41.504,103.516,18.066,0
1539626684.392,61.523,40.039,26.855,109.375,28.809,0
1539626684.396,59.082,35.156,27.344,131.836,25.879,0
1539626684.400,34.668,25.391,45.410,108.398,57.129,0
1539626684.403,23.926,29.785,41.992,71.289,40.039,0
1539626684.407,20.020,33.203,29.785,83.496,43.457,0
1539626684.411,11.719,33.691,28.809,86.914,48.340,0
1539626684.415,14.648,35.156,33.691,72.266,31.738,0
1539626684.419,11.230,30.762,40.039,18.555,73.730,0
1539626684.423,12.695,34.180,36.133,24.414,31.250,0
1539626684.427,23.926,38.086,27.832,67.383,-4.395,0
1539626684.431,24.902,40.039,24.902,65.918,0.488,0
1539626684.435,26.367,39.062,29.297,56.152,68.359,0
1539626684.439,27.344,32.715,31.250,62.988,83.496,0
1539626684.442,23.926,30.273,39.062,73.242,27.832,0
1539626684.446,22.949,31.738,40.039,58.105,82.520,0
1539626684.450,19.043,33.691,31.250,39.551,57.129,0
1539626684.454,18.066,30.762,34.180,44.922,51.270,0
1539626684.458,24.902,30.762,36.133,60.547,110.840,0
1539626684.462,19.043,33.691,32.715,51.758,46.387,0
1539626684.466,26.367,34.180,28.809,52.734,39.551,0
1539626684.470,24.902,35.156,27.344,51.758,31.250,0
1539626684.474,19.043,32.715,31.250,53.711,18.066,0
1539626684.478,31.738,31.738,32.227,61.035,32.715,0
1539626684.482,27.832,30.762,34.668,62.500,2.930,0
1539626684.485,10.742,31.250,32.227,54.688,12.207,0
1539626684.489,11.230,31.738,26.855,36.621,46.387,0
1539626684.493,22.461,30.762,27.344,53.711,132.324,0
1539626684.497,24.414,33.203,25.879,74.219,104.004,0
1539626684.501,26.367,31.738,28.320,39.551,27.344,0
1539626684.505,30.273,32.715,29.297,22.949,53.223,0
1539626684.509,24.902,36.621,27.344,61.035,8.301,0
1539626684.513,31.738,39.062,24.902,56.152,7.812,0
1539626684.517,37.109,39.062,26.855,27.832,-1.465,0
1539626684.521,33.691,36.621,29.297,36.133,-52.246,0
1539626684.525,27.344,35.645,27.832,48.828,33.691,0
1539626684.528,8.789,31.250,26.855,49.316,20.508,0
1539626684.532,1.465,27.832,31.738,32.715,7.812,0
1539626684.536,4.395,24.414,36.621,38.574,69.824,0
1539626684.540,-2.441,24.414,33.203,52.734,42.480,0
1539626684.544,9.277,27.344,24.902,40.039,5.859,0
1539626684.548,26.855,24.414,29.297,67.871,9.766,0
1539626684.552,26.855,23.438,33.691,61.035,20.020,0
1539626684.556,12.207,29.785,29.785,38.574,46.875,0
1539626684.560,-4.395,35.645,22.949,33.203,33.691,0
1539626684.564,-15.625,38.086,18.066,14.160,57.617,0
1539626684.567,-17.578,41.016,16.602,23.926,107.422,0
1539626684.571,-5.371,41.016,14.648,49.805,119.629,0
1539626684.575,4.883,41.504,14.648,41.016,54.688,0
1539626684.579,11.230,39.551,13.184,47.363,40.527,0
1539626684.583,14.160,36.621,17.578,63.477,45.410,0
1539626684.587,7.812,34.668,24.902,74.219,63.965,0
1539626684.591,-3.906,31.250,18.066,90.820,118.652,0
1539626684.595,3.906,35.156,9.277,36.621,65.430,0
1539626684.599,13.184,38.574,13.672,19.531,7.812,0
1539626684.603,1.953,37.109,17.578,39.551,18.066,0
1539626684.607,12.695,36.133,17.578,31.738,33.203,0
1539626684.610,34.180,36.133,17.578,37.598,62.012,0
1539626684.614,20.996,33.691,21.973,50.293,26.367,0
1539626684.618,15.137,34.180,25.391,67.871,15.137,0
1539626684.622,31.738,36.621,22.461,68.848,70.312,0
1539626684.626,19.531,34.180,24.902,78.125,53.223,0
1539626684.630,11.719,33.203,24.902,92.285,67.383,0
1539626684.634,21.973,34.668,22.949,98.633,51.270,0
1539626684.638,23.438,32.715,26.855,105.469,-3.906,0
1539626684.642,21.484,32.227,25.391,104.492,-7.812,0
1539626684.646,15.137,33.691,23.438,97.168,-0.977,0
1539626684.650,14.160,33.203,24.902,93.750,34.668,0
1539626684.653,16.113,34.180,27.832,103.027,16.113,0
1539626684.657,20.996,35.156,27.344,99.121,80.078,0
1539626684.661,20.508,37.598,21.484,104.980,140.625,0
1539626684.665,16.602,40.527,20.020,124.023,44.434,0
1539626684.669,32.227,39.551,26.367,133.789,26.367,0
1539626684.673,40.527,40.039,31.738,138.672,71.289,0
1539626684.677,30.273,41.016,29.785,137.207,39.062,0
1539626684.681,35.156,34.668,31.738,108.398,20.996,0
1539626684.685,38.574,30.273,33.203,116.699,2.930,0
1539626684.689,31.738,33.203,29.785,136.719,-20.020,0
1539626684.692,30.762,35.645,30.762,143.555,37.598,0
1539626684.696,17.578,34.668,34.668,121.094,37.598,0
1539626684.700,4.395,32.227,32.715,107.910,46.387,0
1539626684.704,16.602,35.156,29.297,149.902,91.797,0
1539626684.708,22.949,32.227,28.320,138.184,23.438,0
1539626684.712,20.508,28.809,32.715,133.789,41.016,0
1539626684.716,22.461,33.203,38.574,143.555,76.172,0
1539626684.720,15.625,37.598,39.551,130.859,9.766,0
1539626684.724,13.184,38.086,32.715,130.859,9.277,0
1539626684.728,18.066,37.109,30.273,122.559,68.848,0
1539626684.732,41.504,39.551,27.344,138.184,81.055,0
1539626684.735,57.129,39.062,23.926,148.438,41.992,0
1539626684.739,43.945,37.109,32.715,133.301,9.277,0
1539626684.743,23.926,34.668,41.016,104.980,27.344,0
1539626684.747,16.602,31.250,41.016,108.887,13.672,0
1539626684.751,19.531,28.320,37.109,113.770,-39.062,0
1539626684.755,13.184,24.902,43.457,104.492,10.742,0
1539626684.759,17.090,27.344,48.340,117.188,22.949,0
1539626684.763,29.785,31.250,45.410,115.234,53.711,0
1539626684.767,22.461,29.297,46.387,126.465,88.867,0
1539626684.771,17.578,29.785,43.945,133.301,18.555,0
1539626684.775,33.203,33.691,44.922,143.066,5.371,0
1539626684.778,40.039,35.156,44.922,149.414,-27.832,0
1539626684.782,28.809,34.668,46.875,135.742,11.719,0
1539626684.786,30.273,37.598,46.387,121.094,99.121,0
1539626684.790,28.809,35.645,43.945,131.348,86.426,0
1539626684.794,20.508,32.715,43.945,130.859,42.969,0
1539626684.798,32.227,35.156,43.945,120.117,20.996,0
1539626684.802,17.578,33.203,42.969,120.605,22.461,0
1539626684.806,16.602,30.273,39.062,123.047,1.953,0
1539626684.810,30.762,32.227,34.668,119.629,-7.324,0
1539626684.814,36.133,32.227,33.691,94.727,21.484,0
1539626684.817,35.156,33.691,32.227,101.562,6.836,0
1539626684.821,28.809,35.156,34.668,115.234,7.812,0
1539626684.825,28.320,37.109,39.062,124.512,18.555,0
1539626684.829,27.344,35.156,40.527,126.465,-31.250,0
1539626684.833,31.250,32.715,39.062,127.441,27.344,0
1539626684.837,38.086,33.691,38.574,114.258,27.832,0
1539626684.841,22.949,34.668,40.039,94.238,30.273,0
1539626684.845,18.555,36.133,35.645,106.934,81.055,0
1539626684.849,43.945,31.738,33.691,116.211,58.594,0
1539626684.853,43.945,29.785,35.156,114.258,36.621,0
1539626684.857,29.297,29.785,35.156,125.488,-10.742,0
1539626684.860,20.996,29.785,36.621,107.422,-15.625,0
1539626684.864,14.648,31.250,37.109,82.031,47.363,0
1539626684.868,19.043,32.227,37.598,105.469,42.969,0
1539626684.872,24.414,34.180,35.156,99.609,73.730,0
1539626684.876,29.297,33.691,30.273,105.957,87.402,0
1539626684.880,30.762,31.250,28.809,114.258,7.324,0
1539626684.884,31.250,32.227,27.832,93.750,45.410,0
1539626684.888,26.367,31.738,30.273,103.516,41.504,0
1539626684.892,19.531,24.414,41.504,97.168,-22.461,0
1539626684.896,21.484,23.438,43.945,88.867,-11.230,0
1539626684.900,35.645,28.809,34.668,100.098,-15.625,0
1539626684.903,31.250,29.297,32.227,101.562,-11.230,0
1539626684.907,20.508,29.785,32.227,100.586,35.156,0
1539626684.911,30.762,28.320,32.715,98.145,54.688,0
1539626684.915,25.391,31.250,34.180,104.492,26.367,0
1539626684.919,6.348,32.227,31.738,96.191,62.988,0
1539626684.923,12.207,29.297,31.250,101.074,60.059,0
1539626684.927,17.578,33.203,35.156,130.859,-18.066,0
1539626684.931,11.230,33.203,37.109,124.023,-22.949,0
1539626684.935,19.043,32.227,32.715,78.125,13.184,0
1539626684.939,29.785,28.320,28.809,61.523,38.086,0
1539626684.942,27.832,26.855,32.715,72.266,66.406,0
1539626684.946,20.996,35.645,33.203,104.980,46.875,0
1539626684.950,17.090,37.109,31.738,89.355,15.137,0
1539626684.954,33.691,39.062,36.621,64.453,17.090,0
1539626684.958,45.898,41.016,40.527,106.445,4.883,0
1539626684.962,43.457,40.527,47.363,123.047,5.371,0
1539626684.966,33.203,39.551,43.457,118.164,13.672,0
1539626684.970,20.996,35.645,34.180,103.027,30.762,0
1539626684.974,19.043,35.645,27.832,83.984,51.758,0
1539626684.978,7.812,35.156,19.531,76.172,53.711,0
1539626684.982,3.906,35.645,20.020,63.965,67.383,0
1539626684.985,10.742,35.156,23.926,53.711,24.902,0
1539626684.989,5.859,41.504,20.508,62.500,-30.273,0
1539626684.993,-14.648,47.363,18.555,41.992,-14.160,0
1539626684.997,-22.949,42.969,20.996,35.645,51.270,0
1539626685.001,-17.578,43.457,26.367,59.570,27.832,0
1539626685.005,-20.508,48.828,26.367,58.105,-34.668,0
1539626685.009,-38.086,52.246,18.066,39.551,1.953,0
1539626685.013,-50.781,52.734,14.648,15.137,94.727,0
1539626685.017,-38.574,55.176,15.137,14.160,71.289,0
1539626685.021,-34.180,56.641,10.742,17.578,4.395,0
1539626685.025,-31.738,59.082,4.395,9.277,-2.441,0
1539626685.028,-1.953,62.988,3.906,29.785,-27.832,0
1539626685.032,7.324,60.059,9.766,50.293,27.344,0
1539626685.036,1.465,54.688,15.137,60.547,73.242,0
1539626685.040,15.137,53.223,16.602,64.453,61.523,0
1539626685.044,16.602,46.875,18.066,58.594,70.801,0
1539626685.048,15.625,43.457,19.043,44.434,23.438,0
1539626685.052,33.203,47.363,19.531,51.758,33.203,0
1539626685.056,35.645,41.504,21.973,74.219,78.125,0
1539626685.060,28.320,34.668,24.414,74.707,92.773,0
1539626685.064,20.020,33.691,26.367,57.129,43.457,0
1539626685.067,23.438,34.668,24.414,47.363,-4.395,0
1539626685.071,25.879,36.621,27.344,60.059,47.363,0
1539626685.075,27.344,34.668,29.785,61.035,19.043,0
1539626685.079,32.227,29.297,22.461,69.824,2.441,0
1539626685.083,27.344,27.832,17.578,84.473,4.395,0
1539626685.087,41.016,32.715,17.578,56.152,-15.137,0
1539626685.091,52.246,30.273,23.438,66.406,-2.930,0
1539626685.095,43.945,29.297,23.438,66.895,21.484,0
1539626685.099,48.340,30.273,22.461,52.734,-4.395,0
1539626685.103,49.805,29.297,21.484,73.730,43.945,0
1539626685.107,40.039,30.273,25.391,74.707,111.328,0
1539626685.110,27.832,26.367,20.020,75.195,54.199,0
1539626685.114,24.414,27.344,16.113,68.359,-42.969,0
1539626685.118,36.133,34.180,20.996,61.035,-8.789,0
1539626685.122,30.273,37.109,24.902,58.105,79.590,0
1539626685.126,18.066,33.691,26.855,45.898,71.289,0
1539626685.130,26.367,31.250,20.996,38.574,60.547,0
1539626685.134,32.227,33.203,18.066,44.922,45.898,0
1539626685.138,27.344,34.668,23.926,37.109,-28.809,0
1539626685.142,24.902,33.203,20.996,27.832,-29.297,0
1539626685.146,30.273,30.762,17.578,42.480,44.922,0
1539626685.150,32.715,33.203,23.926,41.016,34.180,0
1539626685.153,26.367,33.203,21.973,38.574,47.363,0
1539626685.157,24.414,28.320,22.461,48.828,49.316,0
1539626685.161,28.809,30.273,25.879,46.387,49.805,0
1539626685.165,30.273,34.180,21.484,33.691,66.895,0
1539626685.169,31.250,30.273,20.508,20.508,20.996,0
1539626685.173,15.625,27.344,19.531,13.184,-28.809,0
1539626685.177,9.766,29.785,18.066,31.250,-16.113,0
1539626685.181,20.020,31.250,23.926,35.156,-20.020,0
1539626685.185,14.648,32.715,25.879,24.414,-0.488,0
1539626685.189,14.160,29.785,27.344,19.531,78.613,0
1539626685.192,22.461,23.926,33.203,9.766,70.801,0
1539626685.196,14.648,28.320,28.320,24.902,30.762,0
1539626685.200,0.977,32.715,21.484,60.059,11.230,0
1539626685.204,17.578,27.344,25.391,60.059,-11.719,0
1539626685.208,24.902,23.438,29.297,43.457,44.434,0
1539626685.212,29.785,30.273,22.949,33.203,99.121,0
1539626685.216,44.922,34.668,20.020,50.781,73.730,0
1539626685.220,29.297,28.320,27.832,61.523,-9.277,0
1539626685.224,11.230,24.414,33.203,40.527,-10.254,0
1539626685.228,7.812,22.461,35.645,26.855,68.359,0
1539626685.232,0.000,18.066,38.086,22.461,64.453,0
1539626685.235,-1.953,17.090,34.180,38.086,58.105,0
1539626685.239,3.418,15.625,37.109,36.133,97.656,0
1539626685.243,-4.395,14.160,39.551,19.043,102.051,0
1539626685.247,2.930,22.461,37.598,38.086,64.941,0
1539626685.251,13.672,24.902,41.992,38.574,35.156,0
1539626685.255,15.625,20.020,41.504,13.184,14.160,0
1539626685.259,28.320,21.484,36.621,25.879,-35.156,0
1539626685.263,19.531,20.508,38.574,58.594,24.902,0
1539626685.267,2.441,15.625,41.504,40.527,34.180,0
1539626685.271,9.766,24.902,36.133,34.668,-39.551,0
1539626685.275,17.090,29.785,28.809,50.293,-18.555,0
1539626685.278,10.742,26.367,30.762,43.945,41.992,0
1539626685.282,3.418,29.297,30.273,37.109,76.660,0
1539626685.286,11.719,30.273,31.250,52.734,49.316,0
1539626685.290,7.812,26.367,33.691,49.805,39.551,0
1539626685.294,2.441,22.461,34.668,44.922,-4.883,0
1539626685.298,27.344,24.414,36.621,41.992,-44.922,0
1539626685.302,34.180,30.273,33.203,25.879,29.785,0
1539626685.306,25.879,31.738,32.227,56.152,66.406,0
1539626685.310,18.066,33.691,33.203,83.984,47.852,0
1539626685.314,-0.977,35.156,27.832,76.660,-38.574,0
1539626685.317,2.441,29.297,26.367,104.004,-17.578,0
1539626685.321,-2.930,28.320,32.227,118.164,38.086,0
1539626685.325,-8.301,27.344,31.250,55.664,54.688,0
1539626685.329,0.488,30.273,24.902,11.719,56.152,0
1539626685.333,0.977,31.738,26.367,16.113,41.016,0
1539626685.337,13.184,26.855,31.250,44.434,-10.254,0
1539626685.341,21.973,35.645,29.297,61.523,-13.672,0
1539626685.345,21.973,38.574,30.273,54.199,37.598,0
1539626685.349,8.789,29.785,32.715,46.387,53.223,0
1539626685.353,12.207,31.738,24.414,67.871,43.457,0
1539626685.357,14.160,35.645,19.043,77.148,61.035,0
1539626685.360,-0.977,34.668,22.461,87.891,50.293,0
1539626685.364,-0.488,36.621,23.438,91.309,25.391,0
1539626685.368,11.719,37.109,26.367,59.570,18.066,0
1539626685.372,19.043,32.227,27.832,34.668,22.461,0
1539626685.376,25.391,28.809,27.344,41.504,64.941,1
1539626685.380,26.855,24.414,29.297,64.453,13.184,0
1539626685.384,26.367,27.344,27.344,74.707,24.414,0
1539626685.388,20.508,32.715,23.926,65.918,36.133,0
1539626685.392,4.395,35.645,20.508,48.828,-47.363,0
1539626685.396,-4.883,38.086,20.020,53.223,-40.039,0
1539626685.400,5.859,40.039,17.578,60.059,-32.715,0
1539626685.403,5.371,39.062,17.090,49.805,0.977,0
1539626685.407,-19.531,36.621,21.973,46.875,18.555,0
1539626685.411,-26.855,32.227,20.996,50.293,0.488,0
1539626685.415,-23.926,32.715,15.137,43.457,42.480,0
1539626685.419,-19.043,40.039,13.184,57.617,53.711,0
1539626685.423,-4.883,36.133,14.648,59.570,-0.488,0
1539626685.427,3.906,32.227,17.578,39.062,60.059,0
1539626685.431,-6.348,28.809,18.066,39.551,104.492,0
1539626685.435,-19.531,29.297,16.602,27.832,106.934,0
1539626685.439,-15.137,30.273,16.602,24.414,131.348,0
1539626685.442,-12.695,26.855,18.066,41.504,36.621,0
1539626685.446,6.836,32.715,20.020,33.691,40.039,0
1539626685.450,1.465,37.598,18.066,47.363,39.062,0
1539626685.454,-13.184,31.738,25.879,54.688,28.809,0
1539626685.458,-16.602,29.785,31.250,25.391,66.406,0
1539626685.462,-37.598,30.273,20.020,45.410,24.902,0
1539626685.466,-39.062,26.367,22.949,20.996,29.785,0
1539626685.470,-51.758,25.879,26.367,25.879,43.457,0
1539626685.474,-43.457,30.273,20.508,41.016,58.594,0
1539626685.478,-22.461,29.785,22.949,33.691,62.012,0
1539626685.482,-12.207,28.809,17.578,18.066,40.527,0
1539626685.485,-1.953,30.762,13.184,21.973,40.527,0
1539626685.489,-19.043,30.762,20.996,37.598,30.762,0
1539626685.493,-20.508,32.227,24.902,24.902,59.082,0
1539626685.497,-1.953,34.668,24.902,25.879,104.004,0
1539626685.501,6.836,38.086,27.832,22.461,48.828,0
1539626685.505,25.879,39.551,21.973,46.875,36.133,0
1539626685.509,22.949,40.527,22.461,29.297,54.199,0
1539626685.513,-0.488,41.992,26.367,10.742,37.598,0
1539626685.517,-0.977,38.574,29.297,27.344,41.504,0
1539626685.521,20.020,35.645,33.691,-5.371,65.430,0
1539626685.525,-3.418,33.691,30.273,20.996,36.621,0
1539626685.528,-3.906,34.180,20.996,46.387,-4.883,0
1539626685.532,-6.836,30.273,23.926,-12.695,1.953,0
1539626685.536,2.930,33.203,28.320,-5.859,21.973,0
1539626685.540,40.039,41.992,26.855,47.363,38.086,0
1539626685.544,27.344,41.016,30.762,37.109,26.367,0
1539626685.548,38.086,41.504,31.738,11.230,0.488,0
1539626685.552,43.945,38.574,35.156,2.441,8.789,0
1539626685.556,27.344,37.598,36.133,-14.648,13.672,0
1539626685.560,27.344,36.621,32.715,-14.648,29.297,0
1539626685.564,30.762,35.645,34.180,8.301,46.875,0
1539626685.567,38.086,37.598,39.551,32.227,59.082,0
1539626685.571,43.457,35.645,38.086,25.391,61.035,0
1539626685.575,41.504,36.621,35.645,-7.812,71.777,0
1539626685.579,36.133,34.668,37.598,-4.395,-7.812,0
1539626685.583,34.668,33.203,37.109,9.766,-78.613,0
1539626685.587,29.785,35.156,35.156,-5.371,-7.324,0
1539626685.591,25.391,32.715,37.598,-34.180,43.945,0
1539626685.595,47.363,33.691,40.527,-17.090,21.973,0
1539626685.599,55.664,34.180,38.086,-7.812,23.926,0
1539626685.603,43.945,34.668,38.086,-73.242,44.922,0
1539626685.607,45.410,34.668,38.574,-73.730,101.074,0
1539626685.610,57.129,33.691,39.062,-1.953,101.074,0
1539626685.614,68.359,38.086,33.203,0.488,83.008,0
1539626685.618,56.152,36.621,32.227,-11.719,65.918,0
1539626685.622,49.316,35.156,41.016,-41.504,58.594,0
1539626685.626,61.523,35.645,37.109,-40.527,75.195,0
1539626685.630,51.270,33.203,35.645,11.719,18.066,0
1539626685.634,37.598,35.645,32.227,-10.742,24.414,0
1539626685.638,52.246,38.574,26.855,-15.625,61.523,0
1539626685.642,47.363,36.621,36.133,-2.930,44.922,0
1539626685.646,20.996,30.273,41.504,-23.438,57.617,0
1539626685.650,18.555,27.832,39.062,-51.270,82.031,0
1539626685.653,26.855,25.879,35.645,-66.406,68.848,0
1539626685.657,34.180,29.785,34.180,-65.918,16.602,0
1539626685.661,35.645,32.715,30.762,-75.195,25.879,0
1539626685.665,10.742,26.367,32.715,-47.852,85.938,0
1539626685.669,8.789,27.344,31.738,-51.270,66.406,0
1539626685.673,26.367,29.785,26.855,-61.523,18.066,0
1539626685.677,38.574,30.762,30.762,-27.344,3.418,0
1539626685.681,33.203,31.738,34.180,-10.742,30.273,0
1539626685.685,23.438,32.227,35.645,-11.230,58.594,0
1539626685.689,17.578,31.738,40.039,-20.508,5.371,0
1539626685.692,20.020,30.762,38.086,-10.742,-33.691,0
1539626685.696,41.992,34.668,31.738,-3.418,-4.395,0
1539626685.700,46.875,35.156,31.738,-10.254,36.133,0
1539626685.704,28.809,32.715,34.180,-22.461,17.090,0
1539626685.708,27.832,34.180,33.691,-15.625,15.137,0
1539626685.712,45.898,34.180,35.645,-12.207,57.617,0
1539626685.716,34.180,32.227,34.180,-16.602,74.219,0
1539626685.720,21.973,31.250,34.668,0.977,63.477,0
1539626685.724,29.297,29.297,36.621,0.977,-12.695,0
1539626685.728,28.320,32.227,38.086,5.371,17.090,0
1539626685.732,26.855,29.785,41.016,7.324,58.105,0
1539626685.735,31.250,29.785,30.762,3.906,34.180,0
1539626685.739,37.109,29.297,29.297,24.414,1.953,0
1539626685.743,40.527,31.738,34.180,36.133,-7.324,0
1539626685.747,39.062,35.156,31.250,22.949,-3.418,0
1539626685.751,34.180,35.156,32.715,36.133,36.621,0
1539626685.755,40.527,36.621,33.691,30.762,7.812,0
1539626685.759,27.344,38.086,35.645,20.508,-14.160,0
1539626685.763,17.578,41.504,36.621,27.832,-5.371,0
1539626685.767,27.344,39.062,34.668,29.785,41.504,0
1539626685.771,14.648,36.133,34.668,17.578,92.285,0
1539626685.775,7.812,37.109,31.738,15.137,21.973,0
1539626685.778,19.043,37.598,26.367,20.508,4.395,0
1539626685.782,30.273,37.598,26.855,28.809,-3.906,0
1539626685.786,33.691,34.668,30.273,50.293,-15.625,0
1539626685.790,20.508,29.785,32.227,43.457,17.578,0
1539626685.794,24.414,29.297,32.227,13.672,69.336,0
1539626685.798,29.297,33.691,31.738,42.480,93.750,0
1539626685.802,40.527,28.809,40.039,73.730,76.172,0
1539626685.806,46.875,32.715,38.574,50.293,65.918,0
1539626685.810,36.133,43.457,30.762,36.621,51.270,0
1539626685.814,31.738,40.039,26.367,29.785,40.527,0
1539626685.817,22.461,38.086,24.414,44.434,24.414,0
1539626685.821,14.648,40.039,22.949,33.691,66.406,0
1539626685.825,10.254,37.109,22.949,14.160,45.898,0
1539626685.829,9.277,37.109,22.461,15.625,13.184,0
1539626685.833,17.090,33.203,25.391,26.855,107.910,0
1539626685.837,15.625,31.250,29.785,39.551,67.871,0
1539626685.841,21.484,34.668,22.949,48.340,36.621,0
1539626685.845,27.344,36.133,23.438,50.293,55.664,0
1539626685.849,34.668,34.180,31.250,60.059,29.785,0
1539626685.853,28.320,34.668,31.738,44.922,31.250,0
1539626685.857,30.762,41.016,23.926,50.781,56.152,0
1539626685.860,37.109,36.621,26.855,61.035,-1.953,0
1539626685.864,32.227,36.621,31.250,54.688,7.324,0
1539626685.868,38.574,41.504,30.762,58.594,39.062,0
1539626685.872,40.527,38.574,28.809,58.594,7.812,0
1539626685.876,41.016,35.645,27.344,67.383,34.180,0
1539626685.880,37.598,36.133,31.250,70.801,32.715,0
1539626685.884,37.109,30.273,38.086,61.523,21.484,0
1539626685.888,49.316,31.738,34.668,69.824,13.672,0
1539626685.892,41.016,36.133,30.273,74.219,5.859,0
1539626685.896,27.344,36.621,32.227,81.543,-0.488,0
1539626685.900,39.062,34.668,35.156,88.379,-12.695,0
1539626685.903,33.691,34.668,30.762,79.102,16.602,0
1539626685.907,22.461,37.598,26.855,51.270,2.441,0
1539626685.911,25.879,40.527,36.621,63.965,62.012,0
1539626685.915,31.250,41.016,34.180,77.637,69.336,0
1539626685.919,29.785,37.109,25.391,84.961,-3.418,0
1539626685.923,32.715,31.738,30.762,103.027,5.859,0
1539626685.927,23.438,31.738,35.645,99.121,13.184,0
1539626685.931,23.438,34.180,31.250,70.801,55.176,0
1539626685.935,29.785,30.273,27.832,44.434,58.105,0
1539626685.939,19.043,30.273,30.762,66.895,31.738,0
1539626685.942,33.203,36.133,31.250,77.148,30.273,0
1539626685.946,32.227,33.203,32.715,70.312,14.160,0
1539626685.950,24.414,34.668,30.273,58.105,29.785,0
1539626685.954,30.762,40.039,25.391,77.148,53.223,0
1539626685.958,31.250,38.086,29.785,105.957,53.711,0
1539626685.962,28.809,37.109,31.250,71.289,13.672,0
1539626685.966,26.367,35.645,29.785,66.895,14.160,0
1539626685.970,30.273,31.250,35.645,80.078,27.344,0
1539626685.974,25.879,34.668,36.133,76.172,11.230,0
1539626685.978,13.672,35.645,29.785,87.891,32.227,0
1539626685.982,15.625,35.645,24.414,75.195,43.457,0
1539626685.985,25.879,29.785,29.297,79.102,4.395,0
1539626685.989,29.785,29.785,32.715,84.473,1.465,0
1539626685.993,23.926,29.785,28.320,92.773,7.812,0
1539626685.997,18.555,24.414,35.645,88.379,-40.039,0
1539626686.001,22.461,28.320,38.574,74.707,4.883,0
1539626686.005,25.879,32.227,30.273,94.238,15.625,0
1539626686.009,35.645,29.297,35.645,92.285,9.277,0
1539626686.013,34.180,30.762,37.109,87.891,32.715,0
1539626686.017,25.391,36.133,29.785,62.988,52.246,0
1539626686.021,31.250,36.621,30.762,56.641,122.559,0
1539626686.025,24.902,34.180,32.715,66.406,49.805,0
1539626686.028,21.973,34.668,31.250,61.035,-29.297,0
1539626686.032,23.926,38.574,32.715,79.590,78.125,0
1539626686.036,11.719,38.574,31.250,89.355,98.145,0
1539626686.040,8.301,32.227,27.832,70.312,49.316,0
1539626686.044,16.113,34.668,32.227,86.914,61.035,0
1539626686.048,20.020,40.039,34.180,89.844,67.871,0
1539626686.052,31.738,40.039,35.645,72.754,50.293,0
1539626686.056,47.852,47.852,35.645,83.984,38.086,0
1539626686.060,55.664,52.734,41.992,84.473,35.645,0
1539626686.064,28.320,40.527,36.621,61.035,24.414,0
1539626686.067,12.695,42.969,29.297,66.895,24.902,0
1539626686.071,9.277,50.293,32.227,65.918,20.020,0
1539626686.075,-4.883,53.711,22.949,45.898,16.113,0
1539626686.079,-13.184,59.570,22.949,40.039,40.039,0
1539626686.083,-29.297,56.641,21.973,4.883,51.758,0
1539626686.087,-53.711,59.570,14.648,1.465,63.477,0
1539626686.091,-57.129,63.965,16.602,31.250,-1.953,0
1539626686.095,-45.898,69.824,16.602,28.320,-18.066,0
1539626686.099,-67.871,70.801,9.277,-1.953,40.527,0
1539626686.103,-60.547,72.266,7.324,-9.766,47.363,0
1539626686.107,-58.105,74.219,16.113,-10.742,41.992,0
1539626686.110,-86.426,73.730,13.672,-33.203,29.297,0
1539626686.114,-98.145,75.684,4.883,-40.039,32.227,0
1539626686.118,-101.074,80.566,4.883,-53.223,42.480,0
1539626686.122,-98.145,82.031,5.371,-41.992,41.992,0
1539626686.126,-104.004,79.590,10.254,-38.574,46.387,0
1539626686.130,-110.840,76.660,8.789,-71.289,67.871,0
1539626686.134,-99.121,70.312,8.789,-53.711,69.824,0
1539626686.138,-76.172,66.406,11.719,-24.902,71.289,0
1539626686.142,-60.547,65.430,18.555,-20.508,52.246,0
1539626686.146,-53.711,61.523,24.414,-13.184,-20.020,0
1539626686.150,-46.875,57.617,20.996,22.949,0.977,0
1539626686.153,-52.246,55.176,22.461,48.828,58.105,0
1539626686.157,-49.805,47.363,28.320,40.527,58.594,0
1539626686.161,-31.738,39.551,33.203,37.109,65.430,0
1539626686.165,-21.973,38.574,34.180,40.039,34.180,0
1539626686.169,-8.789,38.086,33.691,32.715,50.781,0
1539626686.173,13.184,34.180,36.133,57.129,58.594,0
1539626686.177,20.996,32.715,32.715,78.613,80.078,0
1539626686.181,11.719,26.855,35.156,99.121,50.293,0
1539626686.185,18.555,23.438,45.410,96.680,-6.348,0
1539626686.189,50.781,20.996,45.410,67.871,30.762,0
1539626686.192,59.082,17.578,43.457,99.609,63.477,0
1539626686.196,64.941,20.508,42.480,132.812,50.293,0
1539626686.200,74.707,22.461,41.016,143.555,15.137,0
1539626686.204,68.848,18.555,44.922,129.395,-6.348,0
1539626686.208,62.500,17.578,48.340,130.371,-17.578,0
1539626686.212,57.129,19.043,47.852,135.254,4.395,0
1539626686.216,68.359,19.531,46.875,116.699,21.973,0
1539626686.220,87.891,20.996,49.805,103.027,40.527,0
1539626686.224,91.309,17.578,48.828,99.609,40.039,0
1539626686.228,90.820,14.160,48.340,99.121,-5.859,0
1539626686.232,103.516,18.555,48.340,109.863,-24.902,0
1539626686.235,115.234,20.508,48.340,121.582,2.930,0
1539626686.239,93.262,20.996,44.434,106.445,33.691,0
1539626686.243,84.961,20.020,41.016,95.215,16.113,0
1539626686.247,94.727,16.113,44.434,122.070,29.297,0
1539626686.251,90.820,15.137,48.340,133.301,30.273,0
1539626686.255,80.566,15.625,49.316,112.793,3.418,0
1539626686.259,67.383,17.578,42.480,98.145,64.941,0
1539626686.263,58.105,20.996,41.016,118.164,84.961,0
1539626686.267,55.664,21.973,41.504,117.676,51.270,0
1539626686.271,55.664,21.484,39.551,98.145,67.383,0
1539626686.275,57.617,23.438,43.457,102.539,20.508,0
1539626686.278,60.547,25.391,45.898,122.559,-3.906,0
1539626686.282,68.359,27.344,42.969,141.602,-10.742,0
1539626686.286,76.172,28.320,38.574,123.047,-10.742,0
1539626686.290,80.566,25.391,41.992,105.469,30.762,0
1539626686.294,75.684,25.879,48.340,129.395,-3.906,0
1539626686.298,72.754,30.273,44.922,134.277,-23.438,0
1539626686.302,69.336,26.367,42.969,116.699,24.902,0
1539626686.306,61.035,26.367,45.898,77.637,46.387,0
1539626686.310,62.012,27.344,45.898,64.453,47.363,0
1539626686.314,54.688,22.461,41.504,100.586,42.969,0
1539626686.317,50.293,21.484,43.457,108.887,-4.395,0
1539626686.321,52.734,26.367,44.922,111.816,47.363,0
1539626686.325,49.316,26.855,40.527,94.238,87.402,0
1539626686.329,53.711,29.297,34.668,71.777,62.988,0
1539626686.333,62.012,32.715,38.086,70.312,12.695,0
1539626686.337,58.594,29.297,42.480,89.355,-18.066,0
1539626686.341,60.059,29.297,37.598,96.191,30.762,0
1539626686.345,60.547,31.250,31.250,95.215,12.695,0
1539626686.349,49.805,29.785,35.645,83.984,17.578,0
1539626686.353,49.316,30.762,37.598,57.129,32.715,0
1539626686.357,58.594,33.691,35.645,70.801,-22.949,0
1539626686.360,61.523,35.156,34.668,84.961,-0.488,0
1539626686.364,61.523,31.738,37.109,85.938,23.438,0
1539626686.368,46.875,25.391,40.527,87.402,32.227,0
1539626686.372,33.691,24.902,36.621,95.215,57.617,0
1539626686.376,37.109,25.391,35.645,92.285,46.387,0
1539626686.380,35.156,24.902,38.086,55.664,58.594,0
1539626686.384,32.227,28.320,34.180,41.504,78.613,0
1539626686.388,32.227,28.809,35.156,70.312,89.355,0
1539626686.392,38.574,23.926,38.574,88.379,54.688,0
1539626686.396,30.762,25.391,37.598,57.129,26.855,0
1539626686.400,20.508,31.738,32.227,37.109,33.691,0
1539626686.403,37.109,36.621,23.438,37.109,15.625,0
1539626686.407,42.969,38.086,22.949,57.617,22.461,0
1539626686.411,43.457,38.086,28.320,74.219,33.691,0
1539626686.415,49.805,36.133,27.832,58.105,57.617,0
1539626686.419,35.645,30.762,27.832,54.688,33.691,0
1539626686.423,34.180,24.902,35.645,58.105,10.254,0
1539626686.427,38.574,27.344,32.715,54.199,17.578,0
1539626686.431,25.879,30.762,26.855,45.898,11.719,0
1539626686.435,35.156,30.762,31.250,37.598,10.254,0
1539626686.439,48.340,29.297,28.809,61.523,26.367,0
1539626686.442,39.551,27.832,30.273,62.012,88.379,0
1539626686.446,23.438,29.785,35.645,42.480,116.699,0
1539626686.450,25.879,32.227,31.250,57.129,121.582,0
1539626686.454,37.598,31.738,33.691,40.039,78.125,0
1539626686.458,36.621,34.180,30.273,60.059,67.871,0
1539626686.462,34.180,37.109,24.414,71.777,73.730,0
1539626686.466,40.527,37.598,26.855,57.617,18.066,0
1539626686.470,44.434,36.621,29.785,56.641,24.414,0
1539626686.474,29.297,34.668,35.645,47.363,65.430,0
1539626686.478,15.137,29.785,36.621,34.668,-5.859,0
1539626686.482,26.367,28.809,30.273,19.531,-39.551,0
1539626686.485,33.691,35.645,27.832,45.410,6.348,0
1539626686.489,20.020,36.621,28.809,42.969,75.195,0
1539626686.493,14.160,30.762,22.949,38.086,89.844,0
1539626686.497,20.508,30.762,20.020,52.246,47.852,0
1539626686.501,22.949,33.203,33.203,49.316,30.273,0
1539626686.505,26.367,34.668,31.250,36.133,25.391,0
1539626686.509,27.344,31.738,28.320,34.668,68.359,0
1539626686.513,27.344,29.297,33.203,63.965,31.738,0
1539626686.517,32.227,31.738,30.273,52.246,-3.906,0
1539626686.521,40.039,33.203,26.855,42.480,62.012,0
1539626686.525,29.297,31.250,27.832,68.359,20.508,0
1539626686.528,19.043,29.785,32.715,62.988,15.137,0
1539626686.532,26.855,33.203,35.156,48.340,56.641,0
1539626686.536,23.926,32.715,32.715,60.059,67.383,0
1539626686.540,20.996,29.785,29.297,44.922,121.582,0
1539626686.544,32.227,32.227,31.738,43.945,46.387,0
1539626686.548,27.344,33.691,32.227,56.152,17.578,0
1539626686.552,23.926,27.344,31.738,44.434,42.969,0
1539626686.556,22.949,25.391,28.320,14.648,27.832,0
1539626686.560,10.742,29.297,24.414,18.555,31.250,0
1539626686.564,5.859,27.344,28.320,45.410,27.344,0
1539626686.567,6.348,27.344,31.738,55.176,25.391,0
1539626686.571,9.277,31.250,28.809,59.082,50.781,0
1539626686.575,12.207,27.344,30.762,43.945,51.758,0
1539626686.579,17.090,23.438,35.645,41.504,0.000,0
1539626686.583,22.461,28.809,36.133,46.875,46.387,0
1539626686.587,21.484,28.809,32.715,39.062,101.074,0
1539626686.591,20.996,26.855,29.297,41.992,15.625,0
1539626686.595,23.438,29.297,28.809,45.898,34.180,0
1539626686.599,26.367,29.297,28.809,49.805,84.473,0
1539626686.603,28.809,26.367,33.691,37.598,58.105,0
1539626686.607,16.602,30.762,31.250,9.766,42.969,0
1539626686.610,14.160,34.668,22.949,12.207,57.617,0
1539626686.614,21.973,25.879,23.438,29.297,63.965,0
1539626686.618,14.648,23.926,28.320,45.898,30.762,0
1539626686.622,17.090,33.203,31.738,48.828,12.207,0
1539626686.626,20.996,38.574,30.273,33.203,14.160,0
1539626686.630,15.625,34.668,29.785,47.852,62.500,0
1539626686.634,34.180,33.203,28.809,60.547,33.203,0
1539626686.638,32.715,30.762,33.203,39.062,52.734,0
1539626686.642,29.297,31.738,32.227,37.109,81.543,0
1539626686.646,43.457,34.180,22.461,37.109,3.418,0
1539626686.650,18.066,26.367,30.762,34.180,0.977,0
1539626686.653,0.000,26.367,40.527,25.391,41.992,0
1539626686.657,10.254,25.879,41.504,19.043,41.016,0
1539626686.661,26.855,23.926,37.109,44.922,45.410,0
1539626686.665,33.691,29.785,33.203,49.316,10.254,0
1539626686.669,22.461,30.273,31.738,21.973,-55.664,0
1539626686.673,16.113,27.344,29.297,13.184,50.781,0
1539626686.677,14.648,28.320,32.227,33.691,89.844,0
1539626686.681,22.949,29.785,32.715,30.762,19.043,0
1539626686.685,20.020,25.879,39.062,34.668,30.273,0
1539626686.689,12.207,27.832,43.457,42.480,-16.602,0
1539626686.692,14.648,32.715,36.133,28.809,-54.688,0
1539626686.696,5.371,31.250,32.227,16.113,29.297,0
1539626686.700,13.184,30.762,28.809,35.156,26.367,0
1539626686.704,23.926,27.344,32.227,32.715,-4.395,0
1539626686.708,26.855,27.344,34.668,34.668,88.379,0
1539626686.712,22.461,30.273,31.250,43.457,69.824,0
1539626686.716,27.344,31.738,37.109,20.996,-13.184,0
1539626686.720,27.344,29.297,41.016,40.039,-36.621,0
1539626686.724,21.484,27.832,32.715,51.270,-16.113,0
1539626686.728,20.996,27.344,28.809,36.621,32.715,0
1539626686.732,25.391,29.297,29.297,10.742,48.340,0
1539626686.735,17.578,29.297,29.297,19.531,50.293,1
1539626686.739,7.812,28.809,35.156,38.086,39.062,0
1539626686.743,16.113,33.203,35.645,37.598,6.836,0
1539626686.747,23.438,31.250,30.762,52.246,-39.551,0
1539626686.751,22.461,30.273,32.227,40.039,-23.926,0
1539626686.755,17.090,35.156,35.645,-2.441,11.230,0
1539626686.759,23.926,36.621,33.203,17.090,-33.203,0
1539626686.763,26.855,36.133,31.250,46.387,-28.320,0
1539626686.767,33.691,36.133,33.203,47.363,-6.836,0
1539626686.771,30.273,32.227,29.297,41.992,-16.113,0
1539626686.775,20.996,31.738,26.367,37.598,63.477,0
1539626686.778,23.438,35.645,28.320,35.156,48.340,0
1539626686.782,10.742,35.156,34.668,29.785,-47.363,0
1539626686.786,8.301,35.156,36.133,21.484,4.395,0
1539626686.790,28.320,37.109,29.297,32.715,57.129,0
1539626686.794,21.484,37.109,29.785,38.086,25.879,0
1539626686.798,16.602,38.086,31.250,58.105,69.824,0
1539626686.802,18.066,35.156,32.227,31.738,73.730,0
1539626686.806,17.578,31.738,31.250,-13.184,17.090,0
1539626686.810,27.832,29.297,24.902,27.344,9.766,0
1539626686.814,33.691,24.414,30.273,48.828,15.625,0
1539626686.817,29.785,31.250,28.320,50.781,55.664,0
1539626686.821,17.578,37.598,27.344,40.039,45.410,0
1539626686.825,12.207,39.062,27.344,23.926,-31.250,0
1539626686.829,23.438,40.039,23.438,44.434,-0.488,0
1539626686.833,20.020,40.039,27.832,32.227,55.664,0
1539626686.837,19.531,42.480,23.926,19.531,50.293,0
1539626686.841,28.809,38.574,26.855,16.113,26.367,0
1539626686.845,35.156,36.621,32.715,15.625,14.648,0
1539626686.849,28.320,35.645,25.879,29.297,20.508,0
1539626686.853,26.367,36.133,25.391,28.320,0.488,0
1539626686.857,24.902,40.039,24.902,38.574,-52.734,0
1539626686.860,26.367,41.992,21.973,23.926,1.953,0
1539626686.864,42.480,42.480,25.391,23.926,100.098,0
1539626686.868,41.504,39.062,32.715,28.320,114.746,0
1539626686.872,31.738,34.668,32.715,23.926,38.574,0
1539626686.876,23.926,34.668,26.367,38.574,21.484,0
1539626686.880,31.250,34.668,27.344,45.410,69.336,0
1539626686.884,32.715,34.180,30.273,43.457,42.969,0
1539626686.888,20.508,35.645,29.785,48.828,13.184,0
1539626686.892,14.160,35.645,26.855,33.691,7.324,0
1539626686.896,16.602,34.668,31.250,19.043,-0.977,0
1539626686.900,17.090,33.203,30.273,40.039,13.184,0
1539626686.903,6.348,33.691,26.367,45.410,35.645,0
1539626686.907,9.277,36.621,28.320,42.969,69.336,0
1539626686.911,20.508,35.645,30.762,38.086,29.297,0
1539626686.915,27.832,33.691,32.227,37.109,22.949,0
1539626686.919,21.484,34.180,32.715,24.902,42.969,0
1539626686.923,14.160,34.668,33.691,29.785,89.355,0
1539626686.927,15.625,34.668,35.645,25.391,93.262,0
1539626686.931,25.879,31.250,29.297,6.836,49.316,0
1539626686.935,23.926,30.762,24.414,46.875,46.387,0
1539626686.939,29.297,41.992,27.344,41.504,-6.836,0
1539626686.942,48.828,42.969,26.855,13.672,41.504,0
1539626686.946,43.457,39.062,33.203,30.762,106.934,0
1539626686.950,23.926,43.457,39.062,28.320,75.195,0
1539626686.954,20.508,38.086,35.156,38.086,34.180,0
1539626686.958,29.297,32.227,31.738,55.176,-6.348,0
1539626686.962,20.996,35.156,29.297,50.293,19.043,0
1539626686.966,17.578,35.156,32.715,38.086,83.984,0
1539626686.970,24.414,34.668,38.086,20.020,83.008,0
1539626686.974,19.043,36.621,32.715,-3.418,46.387,0
1539626686.978,16.113,36.621,25.879,-6.836,30.273,0
1539626686.982,20.508,35.645,28.320,22.949,28.809,0
1539626686.985,16.602,33.691,29.785,37.598,69.336,0
1539626686.989,18.066,32.227,22.949,36.133,73.730,0
1539626686.993,24.414,33.203,27.832,7.324,59.570,0
1539626686.997,26.367,33.203,36.621,21.973,20.508,0
1539626687.001,15.625,31.738,37.598,50.293,6.348,0
1539626687.005,10.742,28.809,27.832,39.062,41.992,0
1539626687.009,14.648,31.250,20.020,34.668,26.855,0
1539626687.013,18.066,32.715,25.879,29.785,29.785,0
1539626687.017,21.973,30.273,24.414,22.949,24.414,0
1539626687.021,18.555,28.809,26.855,28.809,19.531,0
1539626687.025,18.066,31.738,33.203,25.391,73.730,0
1539626687.028,23.438,36.133,27.344,37.598,72.266,0
1539626687.032,25.879,34.668,22.949,28.320,49.805,0
1539626687.036,24.902,30.273,24.414,13.672,75.195,0
1539626687.040,20.508,33.203,26.367,28.320,80.078,0
1539626687.044,13.672,32.227,30.762,27.832,29.297,0
1539626687.048,18.555,32.715,28.320,33.691,0.488,0
1539626687.052,28.809,32.227,26.855,45.410,30.273,0
1539626687.056,36.133,32.227,25.879,34.180,48.828,0
1539626687.060,21.484,40.039,23.926,15.625,29.297,0
1539626687.064,12.207,41.992,25.391,39.551,29.297,0
1539626687.067,7.812,41.504,23.438,36.133,-7.324,0
1539626687.071,5.371,41.016,22.461,-5.371,-45.898,0
1539626687.075,6.348,38.086,20.508,-11.230,24.414,0
1539626687.079,10.254,39.551,19.531,-7.812,30.762,0
1539626687.083,20.508,39.551,20.996,-8.789,11.719,0
1539626687.087,21.973,37.109,18.066,14.648,-11.719,0
1539626687.091,20.508,39.551,19.531,13.672,11.230,0
1539626687.095,23.438,38.086,26.367,-1.465,39.551,0
1539626687.099,23.438,35.156,28.809,4.395,62.500,0
1539626687.103,27.832,37.598,22.949,0.488,108.398,0
1539626687.107,27.344,36.133,22.461,17.578,100.586,0
1539626687.110,10.742,35.645,26.855,22.461,45.898,0
1539626687.114,24.414,35.645,27.832,20.020,37.109,0
1539626687.118,43.457,36.133,27.344,31.738,75.195,0
1539626687.122,38.086,35.645,35.645,22.949,60.059,0
1539626687.126,24.414,38.086,33.203,18.066,61.523,0
1539626687.130,6.348,41.016,23.438,33.691,45.410,0
1539626687.134,12.207,36.133,31.250,55.664,19.043,0
1539626687.138,18.066,36.621,32.227,24.902,60.059,0
1539626687.142,13.672,37.598,23.926,-0.977,62.988,0
1539626687.146,20.996,36.133,26.855,32.715,57.129,0
1539626687.150,21.973,35.156,29.785,38.086,95.703,0
1539626687.153,23.438,36.133,25.391,36.133,70.312,0
1539626687.157,20.508,38.086,26.855,39.551,51.270,0
1539626687.161,15.137,35.156,28.809,18.066,53.711,0
1539626687.165,18.066,35.156,29.785,20.508,28.809,0
1539626687.169,20.020,35.156,31.250,46.387,20.996,0
1539626687.173,17.578,34.180,31.738,43.457,-5.859,0
1539626687.177,17.090,34.668,32.227,42.969,-6.348,0
1539626687.181,28.320,34.668,29.785,29.297,25.879,0
1539626687.185,31.250,34.180,28.320,-6.348,56.641,0
1539626687.189,31.250,33.691,29.785,5.859,32.227,0
1539626687.192,26.367,37.598,33.203,45.410,-18.066,0
1539626687.196,25.391,38.086,30.273,43.945,21.973,0
1539626687.200,31.250,32.715,29.785,46.875,6.348,0
1539626687.204,19.043,33.203,30.762,39.062,-9.766,0
1539626687.208,12.207,36.621,30.762,13.184,-4.395,0
1539626687.212,14.648,36.621,29.785,16.602,10.742,0
1539626687.216,25.391,36.621,26.367,25.391,32.715,0
1539626687.220,18.555,31.250,30.762,30.762,10.742,0
1539626687.224,14.160,32.227,31.250,29.785,13.184,0
1539626687.228,22.461,36.621,29.785,12.695,30.762,0
1539626687.232,13.672,31.738,35.156,20.996,-14.648,0
1539626687.235,9.277,27.832,35.645,39.551,-6.348,0
1539626687.239,8.301,31.738,30.273,27.344,57.617,0
1539626687.243,11.719,31.738,31.738,17.090,61.035,0
1539626687.247,20.996,32.715,32.715,22.461,28.320,0
1539626687.251,31.250,38.574,31.738,24.902,26.367,0
1539626687.255,22.461,36.621,32.227,19.043,65.918,0
1539626687.259,16.602,37.598,31.250,20.020,65.918,0
1539626687.263,28.809,37.109,28.809,49.316,-7.324,0
1539626687.267,25.879,28.809,36.621,38.086,-39.062,0
1539626687.271,19.531,35.156,37.598,34.180,-32.227,0
1539626687.275,19.531,42.480,26.855,50.293,21.484,0
1539626687.278,20.020,34.180,27.344,36.133,71.289,0
1539626687.282,18.066,29.297,31.250,38.574,36.133,0
1539626687.286,26.367,32.715,32.715,40.039,33.203,0
1539626687.290,25.879,33.691,33.691,46.875,58.105,0
1539626687.294,18.555,30.762,31.738,59.082,82.031,0
1539626687.298,19.043,32.227,35.156,35.645,57.617,0
1539626687.302,17.578,31.738,34.180,22.949,-7.324,0
1539626687.306,23.438,29.297,28.320,45.898,-1.465,0
1539626687.310,16.602,31.738,29.785,51.758,30.762,0
1539626687.314,9.277,32.227,26.855,44.434,17.090,0
1539626687.317,10.742,32.715,24.414,24.414,-16.113,0
1539626687.321,15.137,34.180,26.367,7.812,-8.301,0
1539626687.325,13.672,32.715,28.320,10.254,-7.812,0
1539626687.329,17.578,33.203,28.809,25.879,-1.953,0
1539626687.333,30.762,37.109,26.855,38.086,59.082,0
1539626687.337,27.344,34.668,29.297,32.715,32.715,0
1539626687.341,27.832,32.227,33.691,29.785,17.090,0
1539626687.345,24.902,33.691,34.668,33.203,43.945,0
1539626687.349,22.949,33.691,31.738,32.715,71.289,0
1539626687.353,18.066,35.645,30.273,45.410,35.156,0
1539626687.357,18.555,34.668,34.180,37.109,14.160,0
1539626687.360,30.762,32.715,33.203,1.953,39.062,0
1539626687.364,30.273,30.762,30.273,20.020,44.434,0
1539626687.368,24.902,31.738,31.250,39.551,-8.301,0
1539626687.372,22.949,33.691,31.738,32.227,-23.438,0
1539626687.376,30.762,39.551,30.762,34.180,43.457,0
1539626687.380,30.273,41.504,26.367,29.785,41.504,0
1539626687.384,26.855,38.574,23.438,39.551,-7.324,0
1539626687.388,32.227,36.133,30.762,28.320,-27.344,0
1539626687.392,27.832,36.621,32.715,21.973,44.922,0
1539626687.396,25.879,38.574,30.273,41.504,40.527,0
1539626687.400,21.973,33.203,31.738,55.664,-21.484,0
1539626687.403,18.066,32.227,32.227,43.457,44.434,0
1539626687.407,20.508,36.621,30.273,15.137,74.707,0
1539626687.411,21.973,38.086,30.273,26.367,17.578,0
1539626687.415,31.738,37.109,29.297,31.738,4.395,0
1539626687.419,23.438,35.645,25.391,29.297,48.828,0
1539626687.423,13.184,36.621,25.391,25.391,26.367,0
1539626687.427,23.926,38.574,27.832,31.738,11.230,0
1539626687.431,20.996,35.156,31.738,37.109,66.406,0
1539626687.435,17.090,36.133,31.738,13.672,45.898,0
1539626687.439,22.461,38.086,29.785,25.879,-17.578,0
1539626687.442,36.621,41.504,26.367,42.480,-2.441,0
1539626687.446,37.109,41.016,24.414,27.832,63.477,0
1539626687.450,22.461,37.109,27.832,43.945,52.734,0
1539626687.454,31.738,42.480,24.414,57.617,33.691,0
1539626687.458,32.715,41.504,22.949,27.344,64.453,0
1539626687.462,26.367,35.645,28.809,35.645,60.059,0
1539626687.466,20.020,33.691,35.156,46.387,8.789,0
1539626687.470,4.395,27.832,39.551,42.969,-5.371,0
1539626687.474,4.395,21.973,41.504,43.945,17.578,0
1539626687.478,21.484,25.879,37.109,41.504,70.801,0
1539626687.482,27.344,24.902,37.109,35.645,78.125,0
1539626687.485,14.648,23.926,32.715,12.695,69.336,0
1539626687.489,16.113,25.879,28.320,24.414,67.383,0
1539626687.493,19.531,25.391,37.109,52.734,1.953,0
1539626687.497,9.277,22.949,36.621,61.035,-12.207,0
1539626687.501,13.184,20.020,40.039,53.711,33.203,0
1539626687.505,16.113,22.949,41.992,28.809,53.711,0
1539626687.509,11.230,27.344,38.086,25.879,40.527,0
1539626687.513,14.648,29.297,35.645,40.039,26.855,0
1539626687.517,20.020,31.250,38.574,42.969,14.648,0
1539626687.521,19.043,33.203,41.992,46.387,-2.930,0
1539626687.525,17.578,27.832,37.598,47.363,53.223,0
1539626687.528,24.414,28.809,38.574,49.316,34.180,0
1539626687.532,30.273,35.156,41.016,52.246,69.824,0
1539626687.536,29.297,35.645,34.180,45.410,91.797,0
1539626687.540,30.273,35.156,39.551,34.180,82.520,0
1539626687.544,44.434,35.156,42.969,33.203,96.680,0
1539626687.548,28.320,35.645,33.691,29.785,58.594,0
1539626687.552,-3.906,33.691,30.762,32.227,78.613,0
1539626687.556,8.301,33.203,35.156,32.715,61.035,0
1539626687.560,24.414,32.227,35.645,33.203,4.395,0
1539626687.564,18.066,30.273,34.668,34.668,-24.414,0
1539626687.567,22.461,29.785,36.133,41.016,-25.879,0
1539626687.571,25.391,33.691,33.691,44.922,8.301,0
1539626687.575,16.602,36.133,29.785,26.855,45.410,0
1539626687.579,22.461,32.715,28.809,35.645,22.949,0
1539626687.583,29.785,32.715,29.785,43.945,27.832,0
1539626687.587,18.555,34.668,29.785,43.945,59.570,0
1539626687.591,22.461,34.180,29.785,35.156,34.180,0
1539626687.595,27.344,37.109,29.297,38.574,41.504,0
1539626687.599,28.809,37.109,34.668,42.969,85.449,0
1539626687.603,31.250,36.621,37.598,19.043,36.133,0
1539626687.607,36.621,36.621,33.691,33.691,-31.250,0
1539626687.610,43.945,34.668,35.156,46.875,-12.695,0
1539626687.614,30.762,32.227,39.062,59.570,4.395,0
1539626687.618,25.391,33.203,35.156,57.129,22.949,0
1539626687.622,27.832,35.645,33.203,3.418,41.016,0
1539626687.626,31.738,32.715,32.715,0.977,65.918,0
1539626687.630,32.715,29.297,27.344,35.645,45.898,0
1539626687.634,29.785,30.762,22.949,41.016,38.574,0
1539626687.638,14.648,33.691,32.715,54.688,47.363,0
1539626687.642,17.578,29.297,38.574,57.129,42.480,0
1539626687.646,32.227,27.344,35.645,68.359,31.738,0
1539626687.650,20.020,36.133,31.738,57.617,63.477,0
1539626687.653,20.020,39.062,24.902,23.438,86.914,0
1539626687.657,19.531,38.086,27.344,2.930,35.645,0
1539626687.661,15.137,41.016,30.273,13.184,35.156,0
1539626687.665,14.160,40.527,33.691,41.504,-1.953,0
1539626687.669,7.812,34.668,34.180,24.902,-8.301,0
1539626687.673,8.789,33.203,31.250,8.789,7.812,0
1539626687.677,26.367,37.109,28.320,26.855,-23.926,0
1539626687.681,30.273,37.109,27.832,36.621,-3.418,0
1539626687.685,25.391,39.062,32.715,28.320,53.223,0
1539626687.689,27.832,38.574,31.250,23.438,47.852,0
1539626687.692,34.180,33.203,29.297,15.625,10.254,0
1539626687.696,24.902,35.645,30.273,12.695,22.949,0
1539626687.700,23.926,41.504,33.691,37.598,11.719,0
1539626687.704,35.645,41.016,35.156,59.082,0.977,0
1539626687.708,39.062,35.645,29.785,38.574,24.902,0
1539626687.712,30.762,37.598,27.344,22.461,15.137,0
1539626687.716,21.484,39.062,32.227,26.367,44.434,0
1539626687.720,29.785,42.480,27.832,29.785,57.617,0
1539626687.724,32.227,37.109,25.879,36.133,46.875,0
1539626687.728,12.207,29.297,30.762,38.574,59.570,0
1539626687.732,7.812,33.203,31.250,41.016,48.828,0
1539626687.735,12.207,30.762,32.715,24.902,15.625,0
1539626687.739,13.184,30.762,32.715,21.484,42.480,0
1539626687.743,20.996,36.621,34.180,14.648,24.902,0
1539626687.747,16.113,36.621,32.715,8.789,9.277,0
1539626687.751,22.461,34.668,30.762,26.367,80.078,0
1539626687.755,30.273,33.203,32.227,25.879,60.059,0
1539626687.759,19.043,35.645,25.391,33.691,66.895,0
1539626687.763,19.531,37.598,26.855,29.785,30.762,0
1539626687.767,27.832,35.645,31.250,36.133,26.367,0
1539626687.771,36.621,33.691,31.738,32.715,78.125,0
1539626687.775,32.715,36.621,33.691,48.828,50.781,0
1539626687.778,24.414,40.527,29.297,60.547,75.684,0
1539626687.782,20.508,37.598,28.809,18.555,77.637,0
1539626687.786,28.320,36.621,24.902,10.254,86.914,0
1539626687.790,29.785,35.645,22.949,24.902,84.961,0
1539626687.794,30.762,32.715,29.297,37.598,54.199,0
1539626687.798,29.297,31.738,29.297,39.062,74.219,0
1539626687.802,16.602,31.250,30.273,22.461,3.418,0
1539626687.806,20.020,35.645,27.832,9.277,-26.367,0
1539626687.810,29.785,39.551,23.438,27.832,-7.324,0
1539626687.814,18.555,37.598,31.250,37.598,0.000,0
1539626687.817,14.160,33.691,31.738,39.062,65.918,0
1539626687.821,14.648,33.691,30.762,31.250,61.035,0
1539626687.825,20.020,30.273,32.715,33.691,-3.906,0
1539626687.829,26.855,29.297,34.668,32.227,-15.625,0
1539626687.833,23.926,34.668,33.691,16.113,-31.250,0
1539626687.837,19.531,32.715,30.273,15.625,-9.277,0
1539626687.841,19.531,25.391,32.715,19.531,57.617,0
1539626687.845,21.973,26.855,36.621,18.555,56.152,0
1539626687.849,9.766,36.133,37.109,24.902,61.035,0
1539626687.853,10.254,36.621,35.645,45.898,63.477,0
1539626687.857,23.438,31.250,36.133,57.129,22.461,0
1539626687.860,25.391,34.180,32.715,46.387,-33.203,0
1539626687.864,18.066,40.039,31.738,23.438,-15.625,0
1539626687.868,17.578,40.527,34.668,33.203,28.320,0
1539626687.872,33.203,37.598,38.086,27.832,40.039,0
1539626687.876,27.344,36.133,37.598,22.949,62.988,0
1539626687.880,17.090,38.086,31.250,11.719,34.668,0
1539626687.884,32.227,41.504,26.367,10.742,60.059,0
1539626687.888,27.832,40.039,29.785,47.852,129.395,0
1539626687.892,7.812,33.203,34.180,28.809,88.867,0
1539626687.896,12.207,30.273,39.062,27.832,27.344,0
1539626687.900,20.996,30.273,40.527,18.066,38.574,0
1539626687.903,22.461,29.785,31.250,5.859,36.133,0
1539626687.907,25.879,29.785,27.832,20.508,-14.160,0
1539626687.911,20.996,31.738,27.344,25.879,-3.906,0
1539626687.915,11.230,30.273,24.902,42.969,42.969,0
1539626687.919,15.625,27.344,31.250,42.480,12.695,0
1539626687.923,19.043,27.832,33.203,19.531,46.387,0
1539626687.927,15.137,25.879,30.762,19.531,92.773,0
1539626687.931,17.090,22.949,28.320,17.090,91.309,0
1539626687.935,12.207,23.438,28.320,27.344,60.547,0
1539626687.939,25.391,29.785,30.273,39.062,22.461,0
1539626687.942,45.410,36.133,34.180,28.320,24.902,0
1539626687.946,43.457,35.645,32.715,26.367,28.320,0
1539626687.950,32.715,32.715,28.320,20.996,30.762,0
1539626687.954,32.227,36.133,26.367,15.625,39.062,0
1539626687.958,18.066,36.133,30.762,20.508,25.391,0
1539626687.962,11.719,32.227,31.738,5.859,38.574,0
1539626687.966,26.367,33.691,31.250,-4.883,102.539,0
1539626687.970,19.531,35.645,29.785,13.184,50.293,0
1539626687.974,13.184,35.156,25.879,16.602,1.953,0
1539626687.978,10.254,33.691,26.855,20.996,10.254,0
1539626687.982,11.719,30.762,25.391,21.484,-17.578,0
1539626687.985,17.090,28.809,26.367,11.230,-32.227,0
1539626687.989,11.230,31.738,27.832,19.043,2.441,0
1539626687.993,10.742,34.668,29.785,42.969,-3.418,0
1539626687.997,15.625,35.156,34.668,55.664,-1.953,0
1539626688.001,24.414,37.598,33.691,46.387,35.156,0
1539626688.005,27.832,35.156,26.367,31.738,46.387,0
1539626688.009,28.809,33.203,24.902,44.922,93.750,0
1539626688.013,30.273,38.086,27.832,32.715,53.711,0
1539626688.017,28.809,36.133,29.297,33.203,6.836,0
1539626688.021,10.254,32.715,34.668,37.598,30.273,0
1539626688.025,-6.836,33.691,36.133,8.301,37.598,0
1539626688.028,12.207,35.156,32.227,29.297,36.133,0
1539626688.032,32.227,40.527,30.273,37.598,72.266,0
1539626688.036,30.273,40.039,29.297,38.086,32.715,0
1539626688.040,27.832,34.180,34.180,47.363,29.297,0
1539626688.044,18.066,31.738,33.691,38.086,135.254,0
1539626688.048,14.648,32.227,28.320,20.020,98.633,0
1539626688.052,23.926,33.203,28.320,29.785,47.363,0
1539626688.056,20.508,37.109,28.320,19.043,41.504,0
1539626688.060,22.949,36.621,27.832,23.438,1.953,0
1539626688.064,33.203,32.227,32.227,51.270,-26.367,1
1539626688.067,19.043,33.203,39.551,42.480,23.438,0
1539626688.071,19.531,30.762,42.480,39.551,61.035,0
1539626688.075,29.785,31.738,34.668,32.227,10.254,0
1539626688.079,22.949,37.109,33.203,26.855,0.000,0
1539626688.083,12.695,38.086,34.180,30.273,21.973,0
1539626688.087,7.812,39.551,27.344,23.438,35.156,0
1539626688.091,15.625,38.086,25.879,22.949,40.527,0
1539626688.095,22.949,37.598,25.879,18.066,44.434,0
1539626688.099,32.227,39.062,24.414,28.809,84.473,0
1539626688.103,27.344,38.574,27.832,20.508,81.055,0
1539626688.107,21.484,34.180,31.738,3.418,56.152,0
1539626688.110,20.996,31.738,30.273,21.484,60.547,0
1539626688.114,31.250,35.156,28.809,29.785,14.160,0
1539626688.118,38.574,40.527,25.879,31.738,1.953,0
1539626688.122,24.902,41.016,29.297,33.203,18.066,0
1539626688.126,34.180,38.086,36.621,14.648,35.156,0
1539626688.130,41.504,42.480,35.645,-4.395,57.617,0
1539626688.134,35.156,43.945,26.855,13.672,33.203,0
1539626688.138,37.598,41.016,25.391,47.852,10.742,0
1539626688.142,45.898,40.527,29.785,38.086,23.438,0
1539626688.146,28.809,40.527,30.762,24.414,30.273,0
1539626688.150,23.926,39.062,31.250,48.828,47.363,0
1539626688.153,36.621,36.621,33.203,47.363,24.414,0
1539626688.157,27.344,40.039,33.203,35.156,-8.789,0
1539626688.161,11.719,36.621,30.762,34.180,28.809,0
1539626688.165,8.301,32.715,29.297,38.574,67.871,0
1539626688.169,18.066,35.645,27.344,30.273,76.172,0
1539626688.173,15.137,38.086,28.809,3.418,28.320,0
1539626688.177,17.578,38.086,33.691,17.090,35.156,0
1539626688.181,25.879,38.574,30.762,43.457,50.293,0
1539626688.185,21.973,38.086,30.273,41.992,76.172,0
1539626688.189,28.320,40.039,27.832,37.598,59.570,0
1539626688.192,26.367,44.922,25.879,41.016,0.000,0
1539626688.196,15.137,41.016,33.691,22.949,-15.625,0
1539626688.200,22.461,34.668,35.156,12.695,33.691,0
1539626688.204,36.621,32.227,34.180,24.902,30.762,0
1539626688.208,32.715,33.691,36.133,33.691,-18.555,0
1539626688.212,27.344,34.668,29.785,32.227,20.508,0
1539626688.216,36.133,36.621,26.855,26.855,50.781,0
1539626688.220,34.180,41.016,31.738,38.086,28.809,0
1539626688.224,23.438,43.945,32.715,28.809,43.945,0
1539626688.228,20.508,42.480,35.156,28.320,55.664,0
1539626688.232,15.137,38.086,32.227,27.832,-35.156,0
1539626688.235,22.461,39.062,28.809,34.180,-41.504,0
1539626688.239,27.344,37.109,31.250,47.852,12.695,0
1539626688.243,21.973,35.645,33.203,43.457,38.086,0
1539626688.247,32.227,40.527,37.598,37.109,45.898,0
1539626688.251,38.574,39.062,38.574,62.988,29.785,0
1539626688.255,31.250,39.551,33.203,46.875,2.930,0
1539626688.259,18.066,35.156,34.180,6.836,-16.113,0
1539626688.263,24.414,31.250,35.645,31.250,-1.465,0
1539626688.267,29.297,33.691,32.227,41.016,28.809,0
1539626688.271,24.414,33.691,31.250,28.320,23.926,0
1539626688.275,24.414,32.715,32.715,17.090,57.129,0
1539626688.278,15.137,28.320,30.762,16.113,48.828,0
1539626688.282,15.137,26.855,29.785,20.508,24.902,0
1539626688.286,21.973,27.832,27.344,45.898,26.367,0
1539626688.290,21.484,25.879,24.414,34.668,-5.859,0
1539626688.294,12.207,25.391,30.273,11.719,35.156,0
1539626688.298,3.418,30.273,29.297,27.344,52.246,0
1539626688.302,5.859,33.691,28.320,26.367,81.055,0
1539626688.306,12.695,37.109,32.227,33.691,100.586,0
1539626688.310,19.531,39.062,34.668,34.180,35.645,0
1539626688.314,20.996,38.086,34.668,38.574,57.129,0
1539626688.317,12.695,34.180,33.691,38.086,13.184,0
1539626688.321,11.230,31.250,32.227,16.602,-15.137,0
1539626688.325,9.766,28.320,28.809,15.625,6.348,0
1539626688.329,2.930,31.738,25.879,26.855,8.789,0
1539626688.333,19.531,33.691,27.344,17.578,34.668,0
1539626688.337,26.367,30.273,30.762,12.207,19.043,0
1539626688.341,21.484,30.273,28.809,29.785,-8.789,0
1539626688.345,16.113,34.180,25.391,14.160,42.969,0
1539626688.349,19.531,36.621,21.484,0.000,61.035,0
1539626688.353,26.367,32.227,23.926,40.527,46.387,0
1539626688.357,18.066,25.879,29.297,49.316,24.414,0
1539626688.360,14.648,25.879,33.203,37.598,-36.133,0
1539626688.364,12.207,31.250,33.691,23.438,5.859,0
1539626688.368,5.859,30.273,28.809,10.742,50.293,0
1539626688.372,5.371,29.785,29.297,-14.648,70.312,0
1539626688.376,13.672,33.203,24.902,12.695,66.895,0
1539626688.380,14.648,31.250,25.391,45.898,77.637,0
1539626688.384,11.719,29.785,28.320,33.203,68.848,0
1539626688.388,19.043,30.762,30.273,33.691,-18.555,0
1539626688.392,10.254,30.762,33.203,28.809,-19.043,0
1539626688.396,11.230,32.227,33.203,20.996,65.430,0
1539626688.400,18.066,34.180,33.203,17.090,60.059,0
1539626688.403,21.484,35.645,30.762,41.016,56.641,0
1539626688.407,30.273,35.156,35.156,27.832,87.402,0
1539626688.411,32.227,34.180,36.621,20.996,87.891,0
1539626688.415,31.738,33.691,31.250,39.551,58.105,0
1539626688.419,20.508,34.180,32.227,39.551,106.934,0
1539626688.423,27.344,36.133,33.691,22.949,61.523,0
1539626688.427,27.344,37.598,35.156,-7.324,19.043,0
1539626688.431,7.812,38.086,36.133,19.531,16.602,0
1539626688.435,14.648,39.551,38.574,30.762,-4.395,0
1539626688.439,28.809,35.156,35.645,15.137,-24.414,0
1539626688.442,20.020,30.762,27.832,18.066,36.133,0
1539626688.446,13.672,32.715,29.785,23.926,54.199,0
1539626688.450,19.531,35.156,35.156,32.715,33.691,0
1539626688.454,21.484,38.574,39.062,22.949,53.711,0
1539626688.458,13.672,39.062,40.039,-0.488,56.152,0
1539626688.462,-0.488,37.598,35.156,14.648,11.719,0
1539626688.466,0.977,38.574,33.203,36.133,16.113,0
1539626688.470,9.766,40.527,36.133,37.598,31.738,0
1539626688.474,9.766,40.039,35.645,19.531,4.883,0
1539626688.478,7.812,39.062,35.156,6.836,46.875,0
1539626688.482,6.836,33.203,35.645,20.996,30.273,0
1539626688.485,9.766,33.203,30.273,27.344,9.766,0
1539626688.489,20.020,36.133,31.250,18.555,23.926,0
1539626688.493,18.555,35.645,34.180,18.555,-9.766,0
1539626688.497,6.836,39.551,28.809,4.395,-42.480,0
1539626688.501,7.812,37.109,30.273,12.695,3.418,0
1539626688.505,19.043,34.668,32.715,20.020,73.242,0
1539626688.509,20.508,35.156,31.250,-0.977,55.176,0
1539626688.513,11.230,31.250,32.715,3.418,68.848,0
1539626688.517,21.973,35.645,34.180,24.414,80.566,0
1539626688.521,16.113,39.551,34.180,18.066,53.223,0
1539626688.525,14.648,37.598,25.879,3.418,40.039,0
1539626688.528,33.691,34.180,24.902,12.207,49.805,0
1539626688.532,23.926,33.203,24.902,40.527,87.402,0
1539626688.536,3.418,34.180,24.902,21.973,77.148,0
1539626688.540,-4.883,30.762,29.785,-5.859,52.246,0
1539626688.544,-0.488,31.738,32.227,26.855,46.387,0
1539626688.548,4.883,32.227,30.273,36.621,38.086,0
1539626688.552,6.836,34.180,31.250,16.602,72.754,0
1539626688.556,11.230,38.574,30.762,14.160,24.414,0
1539626688.560,-5.859,37.598,28.809,-4.395,-5.859,0
1539626688.564,5.859,34.668,27.344,1.465,-11.719,0
1539626688.567,15.137,32.715,26.367,15.625,-40.527,0
1539626688.571,2.441,33.691,30.762,4.883,41.504,0
1539626688.575,27.832,37.109,27.344,11.230,65.430,0
1539626688.579,25.879,35.645,26.367,25.879,49.316,0
1539626688.583,22.461,33.691,31.250,27.344,16.602,0
1539626688.587,38.574,34.180,28.320,46.875,3.418,0
1539626688.591,29.297,36.133,28.320,46.387,88.867,0
1539626688.595,15.625,37.598,25.391,13.184,29.785,0
1539626688.599,7.324,39.062,14.648,8.301,37.109,0
1539626688.603,10.742,38.086,18.066,16.113,98.633,0
1539626688.607,16.113,41.016,23.438,24.414,35.645,0
1539626688.610,21.973,44.922,21.484,32.715,47.852,0
1539626688.614,18.066,42.969,26.855,35.156,73.242,0
1539626688.618,10.254,42.480,31.250,10.742,40.527,0
1539626688.622,12.207,40.527,27.832,8.789,43.457,0
1539626688.626,26.367,40.527,25.879,24.414,44.434,0
1539626688.630,28.320,41.992,21.973,20.996,27.832,0
1539626688.634,16.602,41.016,23.438,25.391,20.996,0
1539626688.638,17.578,39.062,24.414,17.090,33.203,0
1539626688.642,19.043,41.504,22.949,-3.906,3.418,0
1539626688.646,21.484,44.922,27.344,-0.977,-9.766,0
1539626688.650,27.344,42.480,31.250,18.066,35.645,0
1539626688.653,26.855,39.062,28.809,25.391,9.277,0
1539626688.657,20.996,41.016,25.879,25.391,-4.883,0
1539626688.661,26.855,40.527,27.832,29.785,57.129,0
1539626688.665,30.762,35.645,29.297,34.668,37.109,0
1539626688.669,21.973,33.691,31.738,20.508,13.672,0
1539626688.673,30.273,42.969,29.785,22.949,51.758,0
1539626688.677,38.086,45.898,24.902,22.949,8.301,0
1539626688.681,26.367,45.898,22.949,31.738,23.438,0
1539626688.685,19.043,46.387,23.926,37.598,64.941,0
1539626688.689,12.695,41.992,25.879,22.949,72.266,0
1539626688.692,10.742,41.992,30.273,29.785,77.637,0
1539626688.696,11.719,41.992,28.320,30.273,62.012,0
1539626688.700,20.996,40.527,25.879,17.090,45.410,0
1539626688.704,23.438,36.133,29.785,18.066,29.297,0
1539626688.708,22.461,35.156,33.203,26.367,14.160,0
1539626688.712,26.367,36.621,33.691,12.207,48.828,0
1539626688.716,24.902,37.109,32.227,16.602,74.707,0
1539626688.720,25.391,40.527,27.344,30.762,22.461,0
1539626688.724,18.555,40.039,26.367,11.230,26.855,0
1539626688.728,19.043,34.180,32.227,16.113,76.172,0
1539626688.732,6.348,29.297,26.855,23.926,41.504,0
1539626688.735,-2.930,33.203,20.996,20.996,65.918,0
1539626688.739,13.184,37.109,26.855,33.691,56.152,0
1539626688.743,10.742,36.621,28.809,43.945,40.527,0
1539626688.747,23.926,37.598,28.809,52.246,87.891,0
1539626688.751,41.016,38.086,29.785,31.738,42.969,0
1539626688.755,33.203,38.086,33.691,8.789,26.367,0
1539626688.759,32.715,39.062,31.738,24.902,46.387,0
1539626688.763,17.090,37.109,25.879,22.461,0.000,0
1539626688.767,12.207,37.109,27.344,33.203,-56.152,0
1539626688.771,28.809,41.992,33.203,41.016,-8.789,0
1539626688.775,30.762,41.016,37.598,29.785,-12.207,0
1539626688.778,20.508,38.086,33.691,32.227,-6.348,0
1539626688.782,16.602,37.598,34.668,35.156,36.133,0
1539626688.786,24.902,38.086,35.645,12.207,52.246,0
1539626688.790,23.438,35.645,35.645,5.371,41.992,0
1539626688.794,14.160,37.109,30.762,22.949,22.461,0
1539626688.798,19.531,39.551,25.879,35.645,60.547,0
1539626688.802,27.344,40.527,30.762,49.805,61.523,0
1539626688.806,22.949,34.668,35.645,27.344,51.758,0
1539626688.810,25.391,31.250,34.180,20.508,81.543,0
1539626688.814,30.273,32.227,32.227,22.949,52.734,0
1539626688.817,29.785,32.227,28.809,9.766,24.414,0
1539626688.821,32.227,33.203,22.949,23.926,20.508,0
1539626688.825,25.879,34.180,20.996,18.555,17.578,0
1539626688.829,33.691,38.574,23.926,20.508,28.809,0
1539626688.833,42.969,39.062,23.438,23.926,24.414,0
1539626688.837,31.738,37.598,27.832,15.137,11.719,0
1539626688.841,34.180,39.062,29.297,1.465,46.387,0
1539626688.845,48.828,42.969,18.066,3.418,62.500,0
1539626688.849,29.297,42.969,17.090,29.785,37.598,0
1539626688.853,11.230,35.156,31.250,41.016,18.555,0
1539626688.857,17.090,29.785,38.574,20.020,54.199,0
1539626688.860,23.926,30.762,39.062,20.996,41.992,0
1539626688.864,12.207,29.297,39.551,31.738,4.395,0
1539626688.868,9.766,25.391,43.945,18.555,36.133,0
1539626688.872,20.996,23.926,44.922,25.391,32.227,0
1539626688.876,14.648,26.855,39.551,26.367,7.324,0
1539626688.880,8.301,30.762,38.086,43.457,30.273,0
1539626688.884,7.812,35.156,40.039,46.875,55.664,0
1539626688.888,19.531,31.250,40.039,32.715,50.781,0
1539626688.892,26.367,26.855,33.691,48.828,-8.789,0
1539626688.896,16.113,27.344,30.273,44.434,-26.855,0
1539626688.900,11.230,28.320,38.574,50.293,17.090,0
1539626688.903,10.742,28.809,37.598,34.180,44.434,0
1539626688.907,0.977,29.785,34.180,3.418,16.113,0
1539626688.911,4.395,28.809,38.086,13.184,-9.766,0
1539626688.915,20.508,31.250,31.250,28.809,-2.930,0
1539626688.919,31.738,36.133,26.367,24.902,12.207,0
1539626688.923,34.180,33.691,29.297,20.508,79.102,0
1539626688.927,22.461,33.691,28.809,22.949,62.500,0
1539626688.931,17.578,35.156,28.809,24.414,41.504,0
1539626688.935,21.484,33.203,37.598,47.852,82.520,0
1539626688.939,24.414,29.785,41.992,33.203,131.348,0
1539626688.942,18.066,30.762,39.551,3.418,108.398,0
1539626688.946,6.348,33.691,33.203,26.855,105.469,0
1539626688.950,20.020,35.156,31.250,47.852,52.246,0
1539626688.954,28.320,34.180,34.180,34.180,27.344,0
1539626688.958,2.930,32.715,36.133,26.367,62.500,0
1539626688.962,12.207,34.668,33.203,25.879,-23.926,0
1539626688.966,33.203,34.668,28.809,42.480,0.000,0
1539626688.970,23.438,33.691,28.320,54.688,80.078,0
1539626688.974,15.137,32.715,33.691,36.133,53.223,0
1539626688.978,21.484,32.227,29.297,22.461,32.715,0
1539626688.982,20.020,34.668,22.949,14.648,50.781,0
1539626688.985,12.695,31.738,22.949,26.855,38.574,0
1539626688.989,5.859,30.273,32.715,39.062,82.520,0
1539626688.993,9.277,34.180,32.715,36.621,92.773,0
1539626688.997,23.438,33.691,26.855,30.762,58.105,0
1539626689.001,25.879,32.227,29.297,32.715,74.219,0
1539626689.005,15.137,33.203,30.273,33.203,25.879,0
1539626689.009,6.348,29.785,29.297,5.371,-10.742,0
1539626689.013,8.301,28.320,28.809,45.410,58.105,0
1539626689.017,19.043,32.715,27.344,59.082,61.523,0
1539626689.021,25.879,33.691,23.926,20.020,57.129,0
1539626689.025,21.973,35.645,25.879,50.293,87.402,0
1539626689.028,21.973,33.203,29.297,37.109,61.523,0
1539626689.032,22.461,31.250,29.785,23.926,76.660,0
1539626689.036,11.719,34.668,27.344,15.625,86.914,0
1539626689.040,12.207,33.691,32.715,-3.418,84.961,0
1539626689.044,19.531,33.203,31.250,7.812,44.434,0
1539626689.048,26.367,34.180,26.855,35.156,-60.059,0
1539626689.052,26.855,32.227,28.320,32.715,-0.488,0
1539626689.056,17.090,31.250,27.832,22.949,60.547,0
1539626689.060,28.320,29.785,26.855,38.574,32.715,0
1539626689.064,31.738,31.250,31.738,47.363,70.312,0
1539626689.067,17.578,34.668,32.715,35.156,70.312,0
1539626689.071,10.254,37.598,33.203,12.695,35.645,0
1539626689.075,19.531,34.668,28.320,20.020,20.020,0
1539626689.079,20.508,33.203,23.438,23.438,-26.855,0
1539626689.083,16.602,37.598,26.855,22.461,-29.297,0
1539626689.087,23.438,38.574,25.879,29.785,-34.180,0
1539626689.091,25.879,35.645,27.832,28.809,-16.113,0
1539626689.095,34.668,38.086,34.180,39.551,26.855,0
1539626689.099,45.410,37.598,33.691,38.086,20.020,0
1539626689.103,31.738,34.668,25.391,8.301,54.688,0
1539626689.107,9.277,34.668,25.391,9.766,25.391,0
1539626689.110,15.137,36.133,31.738,32.227,-41.992,0
1539626689.114,33.691,40.039,31.738,14.648,5.859,0
1539626689.118,41.504,41.016,26.855,21.973,56.641,0
1539626689.122,33.203,41.504,25.391,38.574,6.348,0
1539626689.126,24.414,40.527,28.320,29.785,5.859,0
1539626689.130,37.598,38.574,25.879,33.203,35.156,0
1539626689.134,25.879,36.133,29.785,42.969,42.480,0
1539626689.138,10.254,34.180,33.203,44.434,68.848,0
1539626689.142,6.348,31.738,31.250,36.133,47.363,0
1539626689.146,10.254,35.645,34.668,35.156,20.996,0
1539626689.150,22.949,39.062,40.039,30.273,17.578,0
1539626689.153,24.414,35.156,37.109,6.348,-8.789,0
1539626689.157,23.438,30.762,35.645,-0.977,-19.531,0
1539626689.161,27.832,29.785,33.203,37.598,-2.930,0
1539626689.165,31.738,32.227,29.785,49.316,-12.207,0
1539626689.169,17.090,35.156,29.785,61.035,34.180,0
1539626689.173,7.812,35.645,29.297,58.594,66.895,0
1539626689.177,17.578,34.668,32.227,4.883,27.344,0
1539626689.181,20.020,36.133,31.738,0.488,8.301,0
1539626689.185,20.508,39.551,34.180,33.691,53.223,0
1539626689.189,25.391,39.062,32.715,39.551,31.250,0
1539626689.192,27.344,39.062,30.273,31.250,-26.855,0
1539626689.196,28.320,38.086,32.227,16.113,59.082,0
1539626689.200,20.996,37.109,32.715,29.297,126.465,0
1539626689.204,21.484,39.551,34.668,44.434,65.918,0
1539626689.208,37.598,40.039,36.621,21.484,16.602,0
1539626689.212,24.414,35.645,35.156,25.391,-6.348,0
1539626689.216,16.113,33.691,37.598,30.273,-0.977,0
1539626689.220,25.391,34.180,39.551,27.832,2.930,0
1539626689.224,19.531,32.227,35.156,37.109,-0.488,0
1539626689.228,6.836,31.738,35.156,35.156,72.754,0
1539626689.232,15.625,34.180,34.180,37.109,38.086,0
1539626689.235,25.391,39.062,35.645,36.621,-10.742,0
1539626689.239,29.297,42.480,40.039,41.016,0.488,0
1539626689.243,23.438,42.480,39.062,50.293,-0.488,0
1539626689.247,7.324,37.598,42.480,16.113,61.035,0
1539626689.251,5.859,40.039,42.969,-4.883,7.812,0
1539626689.255,11.230,41.992,32.715,39.062,-35.645,0
1539626689.259,13.184,36.621,34.668,66.895,22.949,0
1539626689.263,13.672,35.156,41.504,54.688,44.922,0
1539626689.267,12.207,39.062,34.668,20.020,-26.855,0
1539626689.271,17.578,40.039,26.855,25.879,-39.062,0
1539626689.275,34.668,39.551,27.832,34.668,33.203,0
1539626689.278,33.203,38.574,33.691,25.879,5.859,0
1539626689.282,13.184,31.738,36.621,16.602,26.367,0
1539626689.286,11.230,27.832,37.109,26.855,44.434,0
1539626689.290,24.902,30.273,35.156,33.203,67.871,0
1539626689.294,30.762,32.715,36.133,30.273,64.941,0
1539626689.298,23.926,31.738,38.574,22.461,17.090,0
1539626689.302,15.137,29.297,41.992,5.371,44.434,0
1539626689.306,19.531,30.273,42.480,31.250,-13.672,0
1539626689.310,20.508,34.180,37.598,40.039,-77.637,0
1539626689.314,1.953,34.668,37.109,50.781,-27.832,0
1539626689.317,9.766,33.691,33.203,42.969,16.602,0
1539626689.321,20.508,36.133,35.156,8.789,22.461,0
1539626689.325,23.926,38.574,41.016,7.812,4.395,0
1539626689.329,27.832,38.086,38.086,17.578,14.160,0
1539626689.333,18.066,34.668,35.645,17.090,35.156,0
1539626689.337,8.789,32.227,36.621,19.043,-1.953,0
1539626689.341,14.648,34.180,35.645,35.645,34.180,0
1539626689.345,19.043,40.039,31.738,50.781,75.195,0
1539626689.349,19.531,37.109,32.715,11.719,32.227,0
1539626689.353,23.926,37.109,35.156,17.578,101.074,1
1539626689.357,22.461,40.039,31.738,56.152,94.727,0
1539626689.360,26.855,34.668,23.438,41.504,44.922,0
1539626689.364,27.344,36.621,24.902,38.086,50.293,0
1539626689.368,41.504,41.016,26.367,32.227,34.668,0
1539626689.372,45.410,36.133,29.785,19.531,-30.762,0
1539626689.376,23.438,34.668,34.180,20.996,-9.277,0
1539626689.380,17.090,33.691,31.250,19.531,40.527,0
1539626689.384,23.438,31.250,29.785,15.625,-39.062,0
1539626689.388,16.113,34.180,27.832,23.926,-10.254,0
1539626689.392,11.719,34.668,25.879,36.621,71.289,0
1539626689.396,20.508,31.250,28.320,42.480,37.109,0
1539626689.400,15.137,28.809,30.273,46.875,4.395,0
1539626689.403,14.648,27.832,27.832,43.457,69.824,0
1539626689.407,22.461,29.297,29.297,32.227,76.172,0
1539626689.411,18.066,31.250,32.715,28.809,55.664,0
1539626689.415,18.555,31.250,31.250,24.414,51.270,0
1539626689.419,16.602,30.273,29.297,-4.883,36.133,0
1539626689.423,22.949,32.227,27.344,11.230,15.625,0
1539626689.427,35.156,31.738,26.367,42.969,30.762,0
1539626689.431,29.785,32.715,28.809,33.691,41.504,0
1539626689.435,25.391,34.668,31.250,37.598,35.156,0
1539626689.439,16.602,37.109,30.273,34.668,68.848,0
1539626689.442,20.996,36.133,35.156,5.859,88.867,0
1539626689.446,15.137,33.203,34.180,7.812,18.555,0
1539626689.450,5.859,30.273,29.785,28.320,0.488,0
1539626689.454,12.207,31.250,29.297,38.574,60.547,0
1539626689.458,10.254,36.621,27.832,32.227,71.777,0
1539626689.462,18.555,32.227,32.227,14.648,-1.953,0
1539626689.466,24.902,26.855,37.598,28.809,-7.812,0
1539626689.470,28.809,29.297,36.621,39.062,32.715,0
1539626689.474,34.668,36.133,29.297,30.273,53.711,0
1539626689.478,20.508,41.504,24.902,23.438,59.570,0
1539626689.482,1.953,36.621,26.855,21.484,23.438,0
1539626689.485,-6.348,35.156,27.344,16.113,43.457,0
1539626689.489,2.930,37.598,25.879,22.949,78.125,0
1539626689.493,10.254,36.133,29.297,19.043,14.160,0
1539626689.497,14.648,40.527,25.879,-2.930,0.977,0
1539626689.501,27.832,41.016,23.926,4.883,35.645,0
1539626689.505,23.926,38.574,25.391,20.996,23.926,0
1539626689.509,17.090,40.039,23.438,30.273,-25.391,0
1539626689.513,16.602,39.551,23.438,13.184,5.859,0
1539626689.517,22.461,37.598,22.461,6.836,58.594,0
1539626689.521,24.902,38.574,28.809,20.020,4.883,0
1539626689.525,23.438,41.504,30.762,26.367,-24.902,0
1539626689.528,21.484,37.598,26.367,21.484,50.781,0
1539626689.532,27.832,34.180,30.273,17.090,43.457,0
1539626689.536,31.250,37.598,34.180,20.996,17.578,0
1539626689.540,15.625,37.598,31.250,29.297,109.375,0
1539626689.544,17.578,35.645,26.855,41.504,61.523,0
1539626689.548,19.043,33.203,34.180,34.668,14.648,0
1539626689.552,15.625,35.156,32.715,34.668,37.598,0
1539626689.556,20.020,38.086,23.438,55.176,43.945,0
1539626689.560,13.672,36.133,25.391,17.578,32.227,0
1539626689.564,5.371,37.109,30.762,-3.906,-19.531,0
1539626689.567,8.789,36.133,32.715,45.410,3.906,0
1539626689.571,11.719,31.738,29.297,32.715,63.965,0
1539626689.575,26.855,32.227,29.297,10.254,50.293,0
1539626689.579,31.250,34.668,31.738,27.832,81.055,0
1539626689.583,10.742,34.668,22.949,21.973,62.012,0
1539626689.587,14.160,34.180,20.996,27.344,-2.441,0
1539626689.591,24.414,37.598,30.273,24.902,39.551,0
1539626689.595,20.508,36.133,32.715,5.859,66.895,0
1539626689.599,10.254,30.273,27.344,10.742,13.672,0
1539626689.603,20.508,32.715,31.250,32.227,-17.578,0
1539626689.607,14.648,37.109,35.156,49.805,-8.301,0
1539626689.610,10.742,35.645,29.785,31.250,45.898,0
1539626689.614,25.879,32.715,32.227,26.855,71.289,0
1539626689.618,18.066,32.227,35.645,38.574,20.508,0
1539626689.622,10.254,36.133,33.203,37.109,20.996,0
1539626689.626,16.602,36.133,33.203,22.949,5.859,0
1539626689.630,17.090,33.203,34.180,19.531,-2.930,0
1539626689.634,22.949,31.738,39.062,22.949,0.488,0
1539626689.638,42.480,35.645,39.062,16.113,31.250,0
1539626689.642,33.203,35.645,32.715,5.371,52.734,0
1539626689.646,10.254,34.668,31.250,21.973,13.672,0
1539626689.650,5.371,37.109,30.762,55.664,23.926,0
1539626689.653,5.371,34.668,36.621,48.340,86.914,0
1539626689.657,10.254,32.715,37.598,8.301,77.148,0
1539626689.661,8.789,36.621,34.180,31.250,9.766,0
1539626689.665,14.160,39.551,32.715,58.594,9.766,0
1539626689.669,24.414,39.062,29.297,43.945,28.809,0
1539626689.673,17.578,36.133,31.738,38.574,80.566,0
1539626689.677,11.719,39.062,33.203,28.809,83.984,0
1539626689.681,11.230,37.598,35.645,16.602,55.664,0
1539626689.685,11.719,33.691,34.668,32.227,73.242,0
1539626689.689,23.438,34.180,35.156,36.133,60.547,0
1539626689.692,25.879,30.762,37.109,8.789,9.277,0
1539626689.696,31.250,29.297,32.227,13.184,-10.254,0
1539626689.700,43.945,29.297,34.180,34.668,86.914,0
1539626689.704,50.293,34.180,32.227,57.617,57.617,0
1539626689.708,28.320,34.180,31.250,51.270,29.785,0
1539626689.712,15.625,30.762,39.062,27.344,47.852,0
1539626689.716,28.809,30.762,39.551,15.137,7.324,0
1539626689.720,27.832,31.738,30.762,6.348,15.625,0
1539626689.724,18.066,37.598,22.461,5.859,1.953,0
1539626689.728,16.113,41.016,23.926,-10.254,16.113,0
1539626689.732,15.625,39.551,25.391,9.277,34.180,0
1539626689.735,11.719,34.668,26.855,27.832,0.488,0
1539626689.739,11.230,32.227,28.809,11.230,28.320,0
1539626689.743,14.160,34.668,33.691,15.137,104.492,0
1539626689.747,14.648,35.156,34.668,21.484,52.734,0
1539626689.751,8.301,35.156,26.855,5.859,2.930,0
1539626689.755,3.418,31.250,26.855,32.227,38.574,0
1539626689.759,0.000,30.762,32.227,42.480,64.941,0
1539626689.763,2.930,33.203,31.250,13.672,6.348,0
1539626689.767,21.484,31.738,32.227,28.809,27.832,0
1539626689.771,15.137,34.180,31.738,53.711,58.594,0
1539626689.775,15.137,38.086,27.832,24.414,69.336,0
1539626689.778,22.461,36.621,28.320,17.090,82.031,0
1539626689.782,11.719,33.691,32.715,37.598,68.848,0
1539626689.786,8.789,35.156,36.621,35.156,31.250,0
1539626689.790,20.508,35.645,35.645,21.973,12.207,0
1539626689.794,25.391,38.086,35.645,14.160,13.184,0
1539626689.798,20.508,40.527,29.297,-0.488,61.523,0
1539626689.802,24.902,39.062,31.738,8.301,34.668,0
1539626689.806,23.926,35.156,33.203,22.949,59.570,0
1539626689.810,22.949,36.133,26.855,20.508,64.941,0
1539626689.814,16.113,33.691,30.762,16.113,-47.852,0
1539626689.817,12.695,30.273,39.062,-4.883,3.418,0
1539626689.821,14.648,35.156,39.551,2.441,73.242,0
1539626689.825,17.090,37.109,30.762,6.836,47.363,0
1539626689.829,16.113,36.621,30.273,7.324,46.875,0
1539626689.833,22.949,41.016,35.156,25.391,79.590,0
1539626689.837,32.227,41.016,39.062,32.227,66.406,0
1539626689.841,31.250,36.621,37.109,33.203,1.953,0
1539626689.845,29.785,35.156,38.574,35.156,9.766,0
1539626689.849,25.879,35.156,38.574,-2.441,14.160,0
1539626689.853,14.160,34.180,38.086,-13.184,0.977,0
1539626689.857,11.719,31.250,40.039,31.250,24.414,0
1539626689.860,16.602,31.250,37.109,25.879,-28.320,0
1539626689.864,24.414,33.203,32.227,21.484,-18.555,0
1539626689.868,11.230,31.738,33.203,20.020,14.648,0
1539626689.872,2.930,32.715,35.156,-0.977,-19.043,0
1539626689.876,16.113,31.250,35.645,16.602,-3.906,0
1539626689.880,20.020,29.297,35.645,28.809,14.160,0
1539626689.884,22.949,32.715,33.203,23.438,23.926,0
1539626689.888,18.066,35.645,34.668,17.090,17.090,0
1539626689.892,20.020,33.203,35.645,0.977,-28.320,0
1539626689.896,22.949,31.738,34.668,22.949,15.625,0
1539626689.900,16.602,32.715,34.668,41.504,64.941,0
1539626689.903,15.137,32.715,39.062,42.969,45.410,0
1539626689.907,12.695,32.227,37.109,44.922,24.414,0
1539626689.911,14.648,32.227,35.156,18.066,44.434,0
1539626689.915,15.137,33.691,39.062,-0.488,34.668,0
1539626689.919,14.160,33.203,37.598,16.602,-9.277,0
1539626689.923,17.578,32.715,39.062,50.293,20.996,0
1539626689.927,13.672,36.133,35.645,52.734,-7.812,0
1539626689.931,19.531,39.062,27.344,45.898,-14.648,0
1539626689.935,27.344,38.086,34.180,34.668,45.898,0
1539626689.939,11.719,34.180,40.527,6.836,39.551,0
1539626689.942,10.742,31.250,35.156,19.043,3.418,0
1539626689.946,18.555,31.250,36.133,44.922,8.301,0
1539626689.950,20.020,33.203,37.109,41.016,38.574,0
1539626689.954,29.785,40.527,28.809,22.461,28.809,0
1539626689.958,32.227,38.574,27.344,29.785,29.297,0
1539626689.962,21.973,37.109,32.227,12.207,5.371,0
1539626689.966,34.668,43.457,29.785,7.812,-0.977,0
1539626689.970,36.621,44.434,29.785,26.367,-3.906,0
1539626689.974,24.414,41.992,32.227,29.297,17.578,0
1539626689.978,28.809,39.551,32.227,41.992,79.590,0
1539626689.982,44.922,38.574,36.133,31.250,32.715,0
1539626689.985,36.133,38.086,35.156,23.926,28.320,0
1539626689.989,11.719,38.086,30.762,26.855,75.684,0
1539626689.993,15.137,37.109,29.297,29.785,23.926,0
1539626689.997,29.785,36.621,28.809,29.785,33.691,0
1539626690.001,40.527,39.062,33.691,33.691,74.219,0
1539626690.005,29.297,41.504,33.203,37.109,45.898,0
1539626690.009,12.695,38.086,33.691,30.762,33.691,0
1539626690.013,7.324,37.598,42.480,41.016,30.762,0
1539626690.017,11.230,40.527,43.457,35.645,37.598,0
1539626690.021,15.625,39.062,42.969,15.137,24.902,0
1539626690.025,17.578,36.621,38.574,11.230,43.457,0
1539626690.028,24.902,41.016,38.086,27.344,11.230,0
1539626690.032,16.602,41.504,36.133,42.480,-38.086,0
1539626690.036,13.184,33.691,25.879,27.344,26.855,0
1539626690.040,23.438,37.109,24.414,3.418,55.664,0
1539626690.044,4.395,42.480,29.785,1.953,29.297,0
1539626690.048,-13.184,41.992,29.297,11.719,44.922,0
1539626690.052,-15.137,43.945,30.762,-3.906,13.672,0
1539626690.056,-16.113,45.898,32.715,-12.207,-9.277,0
1539626690.060,-17.578,50.293,28.809,-8.789,34.668,0
1539626690.064,-20.996,55.176,20.020,0.977,63.965,0
1539626690.067,-35.645,53.711,15.137,-4.395,55.176,0
1539626690.071,-27.344,55.664,17.090,-26.367,8.301,0
1539626690.075,-7.324,56.641,18.066,-23.438,54.688,0
1539626690.079,-12.695,53.223,21.484,-13.184,94.238,0
1539626690.083,-16.113,53.711,22.461,-8.301,87.891,0
1539626690.087,-10.742,49.316,24.902,0.488,77.637,0
1539626690.091,-8.301,45.410,29.297,-25.879,7.324,0
1539626690.095,-2.441,43.457,32.227,-17.090,22.461,0
1539626690.099,-2.441,43.945,31.250,31.250,32.227,0
1539626690.103,-14.648,39.062,31.250,14.648,5.859,0
1539626690.107,-11.719,33.691,34.668,8.301,37.109,0
1539626690.110,17.090,35.156,34.668,31.250,60.547,0
1539626690.114,37.598,38.086,35.156,15.137,40.039,0
1539626690.118,15.137,35.156,31.738,-11.230,33.691,0
1539626690.122,2.930,33.691,28.320,16.602,16.113,0
1539626690.126,11.230,32.227,36.621,48.340,39.551,0
1539626690.130,1.465,25.391,38.574,36.621,83.008,0
1539626690.134,10.254,24.414,33.203,31.250,49.316,0
1539626690.138,20.996,24.902,32.227,33.203,-7.812,0
1539626690.142,14.160,26.855,32.227,24.902,-14.648,0
1539626690.146,22.461,32.227,28.809,27.832,36.621,0
1539626690.150,33.203,30.273,32.227,51.270,39.551,0
1539626690.153,19.043,23.926,38.086,59.082,20.996,0
1539626690.157,29.785,26.855,37.109,42.480,58.105,0
1539626690.161,57.617,29.785,31.250,32.715,79.102,0
1539626690.165,43.457,29.297,33.203,35.156,30.273,0
1539626690.169,18.555,30.762,41.016,37.598,32.715,0
1539626690.173,18.066,30.762,41.016,32.227,66.406,0
1539626690.177,35.156,26.367,42.480,38.086,10.742,0
1539626690.181,35.645,27.832,41.504,42.480,-23.438,0
1539626690.185,38.574,26.855,35.645,41.992,20.996,0
1539626690.189,50.781,25.391,36.621,44.434,29.297,0
1539626690.192,40.039,25.391,36.621,37.598,-7.324,0
1539626690.196,32.715,25.879,38.574,21.484,41.016,0
1539626690.200,22.949,27.832,42.969,46.875,51.270,0
1539626690.204,14.160,25.879,37.598,67.383,12.207,0
1539626690.208,24.902,24.414,36.133,30.762,22.461,0
1539626690.212,26.367,23.438,35.645,19.531,-24.902,0
1539626690.216,20.508,25.879,36.621,42.969,-26.367,0
1539626690.220,26.367,29.297,33.691,46.387,22.461,0
1539626690.224,39.062,26.855,34.180,37.598,21.973,0
1539626690.228,41.992,25.391,38.086,38.574,8.789,0
1539626690.232,43.457,26.367,35.156,44.922,20.508,0
1539626690.235,45.898,27.344,35.645,41.504,34.180,0
1539626690.239,30.273,23.926,42.480,32.227,-1.953,0
1539626690.243,16.113,24.902,41.504,37.598,-4.883,0
1539626690.247,21.484,28.320,34.180,23.926,56.641,0
1539626690.251,22.949,27.832,31.250,21.973,1.465,0
1539626690.255,21.484,30.273,31.250,30.762,-44.922,0
1539626690.259,29.785,30.273,33.691,29.785,43.457,0
1539626690.263,31.738,28.809,39.551,20.020,90.332,0
1539626690.267,31.738,28.320,38.086,23.438,77.637,0
1539626690.271,20.996,28.320,39.062,12.695,56.152,0
1539626690.275,6.348,27.344,39.062,30.762,40.039,0
1539626690.278,18.066,26.367,35.156,32.715,48.340,0
1539626690.282,34.668,32.715,35.645,19.043,46.875,0
1539626690.286,27.832,33.203,33.691,31.738,-27.344,0
1539626690.290,28.320,31.738,29.297,33.691,-32.227,0
1539626690.294,41.016,34.668,20.020,45.898,32.715,0
1539626690.298,25.391,32.715,20.508,42.480,25.391,0
1539626690.302,3.906,27.832,34.668,7.324,51.270,0
1539626690.306,5.371,22.949,43.457,9.766,72.266,0
1539626690.310,15.137,24.902,40.527,54.688,77.148,0
1539626690.314,18.066,26.367,37.109,42.969,49.805,0
1539626690.317,23.926,25.391,39.551,-0.977,44.922,0
1539626690.321,23.926,29.297,37.598,-3.418,70.801,0
1539626690.325,12.695,32.227,35.645,20.996,97.168,0
1539626690.329,12.207,31.250,40.039,19.531,113.770,0
1539626690.333,21.973,27.832,41.504,28.320,45.410,0
1539626690.337,15.625,28.320,35.645,23.926,19.531,0
1539626690.341,25.879,28.320,35.645,-0.488,64.453,0
1539626690.345,26.855,23.926,38.574,17.090,36.133,0
1539626690.349,13.184,21.484,39.062,14.160,30.762,0
1539626690.353,22.461,25.391,41.504,-1.953,19.531,0
1539626690.357,34.180,27.344,42.480,17.090,-15.137,0
1539626690.360,22.949,26.855,34.180,32.715,36.133,0
1539626690.364,10.742,27.344,31.738,39.551,58.594,0
1539626690.368,24.902,27.832,36.621,32.227,38.086,0
1539626690.372,29.297,28.809,34.668,22.461,31.738,0
1539626690.376,17.578,28.320,31.738,6.348,29.785,0
1539626690.380,27.832,33.203,26.855,-1.465,34.668,0
1539626690.384,42.969,30.762,28.809,16.113,15.625,0
1539626690.388,24.902,25.879,29.785,25.879,3.418,0
1539626690.392,9.277,28.809,31.250,22.461,55.176,0
1539626690.396,17.090,33.203,36.133,19.531,33.691,0
1539626690.400,18.066,32.715,37.109,20.508,30.762,0
1539626690.403,13.184,32.227,31.738,2.930,37.598,0
1539626690.407,1.953,31.250,27.832,0.000,26.855,0
1539626690.411,18.555,28.809,30.273,19.043,33.203,0
1539626690.415,24.902,32.227,29.785,12.695,69.824,0
1539626690.419,14.160,34.180,31.250,12.695,39.062,0
1539626690.423,19.531,32.715,35.156,22.949,-25.879,0
1539626690.427,22.461,31.250,36.621,27.832,26.855,0
1539626690.431,21.973,26.367,37.598,26.367,72.754,0
1539626690.435,36.621,24.902,37.109,36.133,42.969,0
1539626690.439,26.367,27.832,39.551,35.156,54.199,0
1539626690.442,0.977,32.715,36.133,10.742,-9.766,0
1539626690.446,5.371,34.180,29.297,0.488,-32.715,0
1539626690.450,20.508,30.762,24.902,1.953,60.547,0
1539626690.454,30.273,34.668,26.367,26.367,67.383,0
1539626690.458,23.926,37.598,26.367,35.156,44.922,0
1539626690.462,12.695,39.551,23.438,35.645,23.438,0
1539626690.466,14.648,41.992,28.320,42.480,33.691,0
1539626690.470,23.438,40.039,32.715,23.438,30.762,0
1539626690.474,19.531,40.039,31.250,5.859,30.762,0
1539626690.478,23.438,40.527,33.691,8.789,69.336,0
1539626690.482,29.785,39.551,27.832,26.367,65.430,0
1539626690.485,30.273,41.016,27.344,12.207,15.137,0
1539626690.489,33.203,40.039,27.344,20.996,-7.324,0
1539626690.493,25.879,38.574,26.367,54.688,25.391,0
1539626690.497,18.555,39.062,30.762,36.621,41.016,0
1539626690.501,7.324,39.062,31.738,25.391,41.016,0
1539626690.505,9.277,39.551,36.133,36.621,63.477,0
1539626690.509,26.855,40.527,36.621,52.246,11.230,0
1539626690.513,38.086,40.039,35.645,67.383,-27.344,0
1539626690.517,38.574,40.039,39.551,58.594,-18.066,0
1539626690.521,29.297,41.016,35.645,17.578,18.066,0
1539626690.525,33.203,41.992,32.715,19.043,10.254,0
1539626690.528,36.133,40.527,33.691,34.668,-5.371,0
1539626690.532,43.457,38.574,34.180,31.738,25.879,0
1539626690.536,35.156,39.062,32.227,21.973,10.254,0
1539626690.540,8.301,36.621,31.738,26.855,-7.324,0
1539626690.544,21.484,38.086,31.738,23.926,-36.621,0
1539626690.548,34.180,40.039,36.133,13.184,-52.734,0
1539626690.552,28.320,39.062,36.133,18.555,23.438,0
1539626690.556,39.062,42.480,33.203,26.855,90.820,0
1539626690.560,32.227,38.574,31.250,26.367,76.172,0
1539626690.564,35.645,38.086,30.762,39.062,17.090,0
1539626690.567,23.438,39.062,35.156,37.109,57.129,0
1539626690.571,16.113,35.645,36.621,10.742,77.637,0
1539626690.575,25.391,31.250,27.832,-4.883,70.312,0
1539626690.579,37.598,32.715,25.391,-7.324,78.125,0
1539626690.583,49.805,37.109,31.250,0.977,84.961,0
1539626690.587,41.992,40.039,28.809,-2.930,91.309,0
1539626690.591,28.809,43.945,31.738,21.484,37.109,0
1539626690.595,27.832,43.457,38.574,15.625,-5.859,0
1539626690.599,35.156,38.086,34.180,8.789,44.922,0
1539626690.603,41.504,40.039,32.715,35.645,53.223,0
1539626690.607,36.621,41.504,36.133,29.297,12.207,0
1539626690.610,26.855,37.598,41.016,35.645,-6.836,0
1539626690.614,36.621,32.227,42.969,40.039,18.066,0
1539626690.618,31.738,27.832,39.062,27.832,64.941,0
1539626690.622,10.742,30.273,34.180,26.855,38.574,0
1539626690.626,-14.648,32.227,38.574,30.273,18.066,0
1539626690.630,-11.719,30.273,40.039,8.301,21.973,0
1539626690.634,17.090,35.156,35.156,4.883,56.152,0
1539626690.638,24.902,38.086,31.250,30.762,45.898,0
1539626690.642,24.414,36.133,33.203,38.086,23.438,0
1539626690.646,24.414,37.109,35.156,21.973,11.719,0
1539626690.650,29.297,38.086,33.203,24.902,1.953,0
1539626690.653,20.020,36.621,44.434,13.672,4.883,0
1539626690.657,21.484,35.645,42.969,10.254,-28.809,0
1539626690.661,34.668,38.574,32.715,32.227,2.930,0
1539626690.665,22.461,33.203,29.785,36.133,14.160,0
1539626690.669,12.207,28.809,30.762,38.574,0.977,0
1539626690.673,22.949,30.762,30.762,21.973,9.766,0
1539626690.677,27.832,30.762,30.273,10.742,53.711,0
1539626690.681,25.879,34.668,25.391,18.066,97.168,0
1539626690.685,19.043,37.598,27.832,28.809,15.625,0
1539626690.689,7.812,38.086,35.645,20.020,-36.621,0
1539626690.692,14.648,37.109,28.809,27.344,31.738,0
1539626690.696,24.414,37.109,27.344,36.621,40.527,0
1539626690.700,0.488,33.691,36.133,25.391,-13.184,0
1539626690.704,4.883,26.855,39.551,27.832,40.527,0
1539626690.708,19.531,26.855,38.086,26.367,83.008,0
1539626690.712,13.184,30.273,37.598,22.949,46.875,0
1539626690.716,11.230,26.367,40.527,15.137,13.184,0
1539626690.720,17.090,29.785,38.574,20.508,45.898,0
1539626690.724,21.484,35.156,28.320,22.461,73.242,0
1539626690.728,23.926,34.668,29.297,37.598,50.293,0
1539626690.732,48.340,37.109,35.156,44.434,64.453,0
1539626690.735,42.969,36.621,38.086,18.555,53.223,0
1539626690.739,30.762,34.668,39.551,17.090,61.035,0
1539626690.743,27.832,34.180,35.156,21.973,51.758,0
1539626690.747,23.438,35.645,29.785,31.738,20.996,0
1539626690.751,9.277,34.668,33.691,40.039,35.645,0
1539626690.755,1.953,30.273,37.109,24.414,10.254,0
1539626690.759,20.020,28.809,29.297,7.812,16.113,0
1539626690.763,38.574,31.738,31.250,38.574,34.668,0
1539626690.767,27.344,28.809,35.156,43.945,12.695,0
1539626690.771,6.836,29.785,27.344,30.273,29.297,2
1539626690.775,7.812,33.203,30.762,38.086,72.266,0
1539626690.778,18.066,28.809,35.156,40.039,34.180,0
1539626690.782,21.973,25.879,32.715,19.531,-30.762,0
1539626690.786,12.695,26.855,30.762,19.531,-43.457,0
1539626690.790,14.648,29.297,30.762,40.527,-1.465,0
1539626690.794,24.414,31.250,36.621,38.086,13.184,0
1539626690.798,29.297,33.691,34.668,42.480,18.066,0
1539626690.802,25.391,33.691,31.738,45.410,11.230,0
1539626690.806,16.113,33.691,34.668,13.184,37.598,0
1539626690.810,15.625,38.086,33.203,-13.672,27.832,0
1539626690.814,17.090,38.574,33.203,14.160,9.766,0
1539626690.817,10.742,34.668,36.621,36.133,19.043,0
1539626690.821,16.113,35.645,37.109,29.297,15.137,0
1539626690.825,32.227,37.598,41.016,13.184,14.648,0
1539626690.829,30.273,35.156,39.062,13.184,44.434,0
1539626690.833,27.344,37.598,34.668,39.551,30.762,0
1539626690.837,28.320,41.016,35.156,49.805,38.574,0
1539626690.841,19.531,39.551,35.156,8.789,44.434,0
1539626690.845,12.207,40.039,32.227,9.277,2.930,0
1539626690.849,16.602,38.086,30.762,35.645,36.133,0
1539626690.853,23.926,33.691,35.645,43.945,35.156,0
1539626690.857,23.926,34.668,37.598,46.875,37.598,0
1539626690.860,20.508,36.133,36.621,24.902,82.520,0
1539626690.864,17.578,35.645,35.645,24.414,76.172,0
1539626690.868,25.391,37.109,31.250,35.645,34.180,0
1539626690.872,29.785,37.109,34.180,26.855,0.488,0
1539626690.876,23.926,38.574,34.180,5.859,-28.809,0
1539626690.880,14.648,40.039,31.738,34.668,-14.648,0
1539626690.884,17.578,39.551,30.762,53.711,58.105,0
1539626690.888,22.949,39.551,32.227,40.527,47.852,0
1539626690.892,27.832,39.551,38.574,38.086,20.508,0
1539626690.896,29.785,38.574,40.527,28.809,11.719,0
1539626690.900,30.273,41.016,35.156,1.465,62.012,0
1539626690.903,33.691,40.039,32.227,-0.977,98.145,0
1539626690.907,16.602,33.691,36.621,18.555,65.430,0
1539626690.911,22.461,33.203,37.598,34.180,96.680,0
1539626690.915,34.180,39.551,33.203,35.156,62.012,0
1539626690.919,25.879,39.551,26.367,8.789,31.738,0
1539626690.923,30.762,40.527,26.855,3.418,52.734,0
1539626690.927,24.414,48.340,25.879,24.902,31.250,0
1539626690.931,9.766,47.363,21.973,1.953,39.062,0
1539626690.935,11.230,42.969,27.832,1.465,81.055,0
1539626690.939,19.531,39.551,31.250,36.133,26.367,0
1539626690.942,20.996,37.598,30.762,20.508,86.914,0
1539626690.946,10.742,37.109,35.156,-8.301,98.145,0
1539626690.950,9.277,40.039,34.668,6.348,28.320,0
1539626690.954,13.184,39.062,33.203,21.973,84.961,0
1539626690.958,23.438,36.133,33.203,28.809,56.641,0
1539626690.962,40.527,36.621,31.250,42.480,67.383,0
1539626690.966,35.156,37.109,30.762,33.691,22.949,0
1539626690.970,31.738,40.039,33.203,19.043,-11.230,0
1539626690.974,29.785,37.109,35.156,7.812,71.777,0
1539626690.978,14.648,37.598,29.297,6.348,51.270,0
1539626690.982,16.113,41.992,25.879,23.926,35.156,0
1539626690.985,21.484,41.504,26.855,21.973,62.012,0
1539626690.989,25.879,41.016,25.879,22.949,45.410,0
1539626690.993,29.297,36.621,27.832,15.625,65.918,0
1539626690.997,35.645,36.621,29.297,30.273,95.703,0
1539626691.001,29.297,39.551,26.367,37.598,51.758,0
1539626691.005,23.438,38.574,27.344,4.395,16.113,0
1539626691.009,21.973,37.598,30.273,14.160,-3.906,0
1539626691.013,14.160,33.691,29.785,21.484,-18.066,0
1539626691.017,6.836,35.156,24.902,25.391,25.391,0
1539626691.021,5.859,36.133,23.926,29.297,48.828,0
1539626691.025,22.461,34.180,31.250,33.691,63.965,0
1539626691.028,25.391,41.016,36.621,33.691,26.855,0
1539626691.032,17.090,41.992,31.250,11.719,-25.879,0
1539626691.036,19.043,37.109,30.273,5.371,-7.812,0
1539626691.040,28.320,39.551,33.203,-5.371,-20.508,0
1539626691.044,21.973,42.480,30.273,17.090,-42.480,0
1539626691.048,16.113,38.086,34.668,31.738,-11.719,0
1539626691.052,26.855,34.668,34.668,10.254,14.160,0
1539626691.056,31.738,38.086,29.297,9.277,17.090,0
1539626691.060,31.738,39.062,27.832,19.043,22.949,0
1539626691.064,36.621,34.668,29.297,22.949,70.801,0
1539626691.067,30.762,34.180,36.621,44.922,81.543,0
1539626691.071,1.953,34.668,37.598,6.348,-9.277,0
1539626691.075,6.836,33.203,32.715,-13.672,-21.973,0
1539626691.079,18.555,36.621,33.203,27.344,-11.230,0
1539626691.083,22.461,37.598,31.250,32.227,0.000,0
1539626691.087,25.879,34.668,34.668,34.668,49.805,0
1539626691.091,27.344,36.621,36.133,-6.348,29.297,0
1539626691.095,32.715,41.016,30.273,6.348,-44.922,0
1539626691.099,33.203,41.016,26.367,34.180,-76.660,0
1539626691.103,55.664,45.898,22.949,33.203,-30.762,0
1539626691.107,46.875,42.969,30.273,17.090,-13.184,0
1539626691.110,13.184,31.250,39.551,17.578,21.973,0
1539626691.114,7.324,31.738,38.574,19.043,26.855,0
1539626691.118,19.531,32.227,34.668,3.906,24.902,0
1539626691.122,21.484,29.785,33.203,-1.953,52.734,0
1539626691.126,10.254,33.203,34.180,-10.254,41.992,0
1539626691.130,16.602,37.109,35.645,11.719,48.828,0
1539626691.134,21.484,37.598,32.227,14.648,61.035,0
1539626691.138,22.461,35.156,31.738,0.488,82.520,0
1539626691.142,26.367,32.715,32.715,7.812,97.656,0
1539626691.146,14.648,30.273,32.715,14.160,70.801,0
1539626691.150,5.859,30.762,39.062,10.254,28.809,0
1539626691.153,0.977,33.691,40.039,23.438,61.035,0
1539626691.157,0.488,38.574,34.180,17.578,87.891,0
1539626691.161,7.324,35.645,30.273,-2.441,52.246,0
1539626691.165,8.301,32.715,32.227,20.020,-1.953,0
1539626691.169,13.184,32.227,37.109,36.621,-43.457,0
1539626691.173,23.438,33.203,37.598,5.371,55.664,0
1539626691.177,42.480,32.715,37.109,3.418,66.895,0
1539626691.181,43.457,24.414,41.992,8.789,14.648,0
1539626691.185,36.133,35.156,52.246,22.461,68.848,0
1539626691.189,38.574,46.875,54.199,19.043,97.168,0
1539626691.192,33.203,45.898,53.223,5.859,36.621,0
1539626691.196,37.598,13.672,48.340,27.344,24.414,0
1539626691.200,61.523,7.812,77.637,83.984,7.812,0
1539626691.204,96.680,77.637,117.676,102.539,33.203,0
1539626691.208,113.770,122.559,95.215,63.965,80.566,0
1539626691.212,94.238,109.863,62.988,110.840,85.449,0
1539626691.216,33.691,76.172,49.316,69.336,45.410,0
1539626691.220,-36.133,98.633,33.203,-57.617,-16.602,0
1539626691.224,-67.383,131.348,4.395,-100.098,34.668,0
1539626691.228,-75.195,90.820,12.695,-127.930,17.090,0
1539626691.232,-72.754,1.953,34.180,-130.371,2.441,0
1539626691.235,-20.508,58.105,63.477,-56.152,52.246,0
1539626691.239,39.551,177.734,86.914,1.953,70.801,0
1539626691.243,-103.516,108.398,6.836,-151.367,67.871,0
1539626691.247,-274.902,20.020,-70.801,-350.586,39.062,0
1539626691.251,-229.004,51.758,-40.527,-319.336,19.531,0
1539626691.255,-185.059,48.340,-1.953,-281.250,34.668,0
1539626691.259,-162.109,70.312,38.574,-269.043,23.926,0
1539626691.263,-144.043,46.875,46.875,-218.750,-0.977,0
1539626691.267,-78.613,73.730,73.730,-148.926,8.789,0
1539626691.271,-9.766,145.020,52.246,-124.023,49.316,0
1539626691.275,-53.223,122.559,18.066,-149.414,70.312,0
1539626691.278,-139.648,137.695,38.086,-215.820,56.152,0
1539626691.282,-192.383,137.695,39.551,-290.039,46.387,0
1539626691.286,-161.621,127.441,59.082,-264.648,70.801,0
1539626691.290,-139.648,119.141,48.828,-234.863,-13.672,0
1539626691.294,-145.996,122.559,38.574,-240.234,-17.578,0
1539626691.298,-125.977,135.742,41.016,-208.984,49.805,0
1539626691.302,-99.609,137.207,39.062,-193.848,86.426,0
1539626691.306,-84.473,130.859,44.434,-163.086,121.094,0
1539626691.310,-76.172,133.789,46.875,-132.324,65.430,0
1539626691.314,-55.664,140.137,48.340,-119.141,37.598,0
1539626691.317,-21.973,135.742,48.340,-114.746,20.996,0
1539626691.321,-11.230,130.859,45.410,-105.957,4.395,0
1539626691.325,-0.977,137.695,46.875,-76.660,-15.137,0
1539626691.329,16.113,138.672,50.293,-38.574,-62.012,0
1539626691.333,18.555,131.836,52.734,-13.672,1.953,0
1539626691.337,31.250,135.742,48.340,-6.348,52.734,0
1539626691.341,42.969,136.719,46.875,-5.371,20.020,0
1539626691.345,55.176,130.859,50.781,-9.766,21.973,0
1539626691.349,63.477,125.488,55.664,10.254,20.996,0
1539626691.353,58.594,114.258,58.594,41.992,2.930,0
1539626691.357,63.965,105.469,58.105,72.266,3.418,0
1539626691.360,82.031,104.004,58.105,90.820,8.301,0
1539626691.364,98.633,101.074,55.176,76.172,-0.977,0
1539626691.368,96.191,90.332,53.223,73.730,-15.137,0
1539626691.372,105.957,84.961,53.223,95.703,9.277,0
1539626691.376,96.191,84.473,53.223,112.793,13.672,0
1539626691.380,77.637,76.660,53.711,109.375,8.301,0
1539626691.384,94.727,71.777,48.340,93.750,-18.066,0
1539626691.388,98.633,67.871,51.270,99.121,28.809,0
1539626691.392,93.750,64.941,49.805,111.328,59.082,0
1539626691.396,102.051,62.500,42.969,106.445,93.750,0
1539626691.400,109.375,56.641,48.340,98.145,77.148,0
1539626691.403,98.633,52.246,47.363,95.215,34.668,0
1539626691.407,84.473,51.758,46.387,111.328,43.457,0
1539626691.411,92.285,48.340,45.410,111.328,60.059,0
1539626691.415,90.332,46.387,45.410,95.215,75.684,0
1539626691.419,85.938,45.410,50.781,118.652,41.016,0
1539626691.423,98.633,43.945,45.410,111.816,30.762,0
1539626691.427,99.121,43.945,39.551,120.117,41.504,0
1539626691.431,75.684,38.086,39.062,133.301,50.781,0
1539626691.435,77.637,37.598,37.109,115.234,31.738,0
1539626691.439,91.309,39.062,34.180,100.586,24.414,0
1539626691.442,89.355,40.527,30.273,106.445,30.762,0
1539626691.446,89.844,37.109,31.250,113.770,38.086,0
1539626691.450,87.402,34.668,30.273,71.289,27.344,0
1539626691.454,72.754,36.133,27.344,64.453,-9.277,0
1539626691.458,70.312,30.762,23.926,94.238,-6.836,0
1539626691.462,81.055,31.250,19.531,90.820,19.531,0
1539626691.466,77.637,33.691,23.438,50.781,30.762,0
1539626691.470,70.312,28.809,24.902,24.902,31.250,0
1539626691.474,69.824,20.508,19.043,36.621,-13.672,0
1539626691.478,62.012,16.602,13.184,72.266,16.113,0
1539626691.482,53.223,14.648,9.766,90.820,56.641,0
1539626691.485,44.922,14.648,11.230,34.668,7.812,0
1539626691.489,54.199,14.648,12.695,20.508,-12.207,0
1539626691.493,44.434,11.719,16.602,45.410,13.672,0
1539626691.497,27.344,8.301,12.207,46.875,1.465,0
1539626691.501,37.109,10.254,7.812,49.316,49.316,0
1539626691.505,37.109,13.184,11.719,43.457,90.332,0
1539626691.509,41.504,13.184,10.254,32.227,80.078,0
1539626691.513,30.762,12.207,14.648,10.742,77.637,0
1539626691.517,29.297,14.160,17.578,23.438,27.832,0
1539626691.521,30.762,13.672,16.113,34.180,-7.812,0
1539626691.525,23.926,11.230,21.484,10.742,45.898,0
1539626691.528,40.039,14.160,16.113,4.883,60.547,0
1539626691.532,47.363,13.672,4.883,10.254,72.754,0
1539626691.536,52.246,14.648,8.789,-7.812,46.387,0
1539626691.540,47.852,14.160,18.066,-16.113,10.742,0
1539626691.544,14.648,8.789,22.949,-7.324,30.273,0
1539626691.548,-2.441,1.953,20.996,-7.324,17.090,0
1539626691.552,16.113,-1.465,18.555,-15.137,16.602,0
1539626691.556,17.578,1.465,21.484,-9.766,26.367,0
1539626691.560,6.348,8.789,22.461,-19.531,27.344,0
1539626691.564,5.371,14.160,19.043,-20.996,49.316,0
1539626691.567,16.113,10.742,14.160,-4.883,40.527,0
1539626691.571,26.855,6.348,15.137,-3.418,27.344,0
1539626691.575,13.184,6.348,17.090,9.277,78.125,0
1539626691.579,11.230,10.742,14.160,-3.906,53.223,0
1539626691.583,41.016,14.160,13.672,-12.207,14.160,0
1539626691.587,50.781,8.789,17.090,-1.953,39.551,0
1539626691.591,25.879,12.695,15.137,3.906,28.320,0
1539626691.595,3.906,16.113,14.160,-9.277,50.293,0
1539626691.599,5.371,14.648,13.672,3.418,59.570,0
1539626691.603,14.160,13.672,16.602,20.508,22.461,0
1539626691.607,8.789,7.324,19.531,-3.906,-2.930,0
1539626691.610,7.324,11.719,17.090,10.742,67.871,0
1539626691.614,24.902,19.043,13.184,-19.531,54.688,0
1539626691.618,23.926,14.648,17.578,-42.480,5.859,0
1539626691.622,31.738,15.137,19.043,1.953,63.477,0
1539626691.626,32.715,15.625,19.531,12.695,9.766,0
1539626691.630,26.855,4.395,20.996,18.555,-19.531,0
1539626691.634,8.301,3.418,17.090,6.348,14.160,0
1539626691.638,7.324,13.184,17.090,16.602,28.320,0
