timestamps,TP9,AF7,AF8,TP10,Right AUX,Marker0
1539627547.039,-105.957,60.547,18.066,-99.121,27.344,0
1539627547.043,-95.703,55.176,20.996,-89.844,32.715,0
1539627547.047,-72.754,56.152,16.602,-71.777,20.020,0
1539627547.051,-58.594,57.129,16.602,-62.500,18.555,0
1539627547.055,-66.895,50.781,19.043,-53.223,52.734,0
1539627547.059,-55.176,44.434,19.531,-43.457,44.434,0
1539627547.063,-44.922,41.016,23.438,-42.480,42.969,0
1539627547.067,-21.973,41.016,22.949,-18.555,36.133,0
1539627547.071,2.441,41.016,21.484,-1.465,27.832,0
1539627547.074,-5.859,35.156,23.438,16.113,52.734,0
1539627547.078,-7.812,26.855,24.902,28.320,79.590,0
1539627547.082,-6.836,21.484,27.832,35.156,53.223,0
1539627547.086,4.883,21.973,29.785,27.344,18.066,0
1539627547.090,27.344,22.461,26.855,37.598,-1.465,0
1539627547.094,38.574,20.996,29.785,67.871,-13.672,0
1539627547.098,49.805,19.531,39.062,62.988,48.340,0
1539627547.102,69.824,15.137,43.945,56.152,39.551,0
1539627547.106,68.359,13.672,48.340,68.848,8.789,0
1539627547.110,63.965,10.742,50.293,82.031,8.301,0
1539627547.114,84.473,12.207,47.852,92.773,22.461,0
1539627547.117,82.031,14.160,48.340,95.703,15.137,0
1539627547.121,59.570,11.230,50.293,103.516,44.922,0
1539627547.125,69.824,11.230,50.781,91.309,36.621,0
1539627547.129,77.637,10.254,50.293,72.754,-20.996,0
1539627547.133,79.102,10.742,48.340,78.613,10.254,0
1539627547.137,91.797,14.648,47.363,92.285,32.715,0
1539627547.141,82.520,13.184,48.340,101.562,30.762,0
1539627547.145,59.570,13.672,47.363,104.004,33.203,0
1539627547.149,81.543,17.090,47.363,104.004,54.199,0
1539627547.153,97.168,17.090,44.922,106.934,59.570,0
1539627547.157,81.543,13.672,40.527,98.145,65.918,0
1539627547.160,79.590,13.672,44.922,86.426,7.324,0
1539627547.164,84.961,13.672,47.363,86.426,14.160,0
1539627547.168,79.102,12.207,44.434,98.633,50.293,0
1539627547.172,64.453,15.625,43.457,93.750,26.367,0
1539627547.176,70.312,17.090,44.922,79.590,46.387,0
1539627547.180,88.379,16.113,46.387,91.309,65.918,0
1539627547.184,76.172,18.555,42.969,91.309,29.297,0
1539627547.188,62.012,18.066,43.945,82.031,-10.254,0
1539627547.192,52.734,17.090,45.410,79.102,-19.531,0
1539627547.196,55.176,19.043,43.945,87.402,-18.066,0
1539627547.199,71.289,19.043,41.504,91.309,0.000,0
1539627547.203,72.754,21.973,40.527,83.496,67.871,0
1539627547.207,72.754,23.926,42.480,70.801,83.496,0
1539627547.211,55.176,23.926,40.527,70.312,34.668,0
1539627547.215,50.293,27.344,37.598,83.008,47.363,0
1539627547.219,47.363,23.438,41.016,69.824,85.938,0
1539627547.223,37.598,20.508,42.480,50.781,31.250,0
1539627547.227,65.918,24.902,39.062,65.918,31.250,0
1539627547.231,71.777,24.902,37.598,61.035,74.707,0
1539627547.235,48.828,23.926,36.621,40.527,51.270,0
1539627547.239,46.875,26.855,35.645,44.434,24.902,0
1539627547.242,50.293,29.297,34.668,47.852,44.922,0
1539627547.246,55.176,26.367,38.574,43.945,23.438,0
1539627547.250,64.941,27.832,40.527,36.133,24.902,0
1539627547.254,53.711,32.227,37.598,38.574,79.102,0
1539627547.258,39.551,27.832,38.574,41.992,49.316,0
1539627547.262,47.852,24.902,37.598,51.270,65.918,0
1539627547.266,45.898,26.367,40.527,52.734,73.242,0
1539627547.270,37.109,25.879,45.410,40.039,42.480,0
1539627547.274,39.551,29.297,41.016,54.688,32.715,0
1539627547.278,29.785,29.297,39.062,61.523,63.965,0
1539627547.282,32.227,29.785,39.062,68.359,74.219,0
1539627547.285,44.434,36.133,39.551,64.941,16.113,0
1539627547.289,30.273,33.203,38.574,44.922,30.762,0
1539627547.293,9.277,28.320,33.691,44.922,20.508,0
1539627547.297,22.461,33.691,37.109,41.992,24.414,0
1539627547.301,41.504,35.645,35.645,47.363,56.641,0
1539627547.305,41.992,32.715,36.133,44.922,-3.906,0
1539627547.309,41.992,33.203,39.551,58.105,-24.902,0
1539627547.313,45.898,31.738,36.133,45.898,20.020,0
1539627547.317,24.414,30.273,38.086,28.809,23.438,0
1539627547.321,13.184,30.273,40.527,47.363,-15.625,0
1539627547.324,30.273,27.832,39.062,55.664,29.785,0
1539627547.328,30.762,32.227,38.086,61.035,43.457,0
1539627547.332,17.090,38.086,33.691,52.734,8.789,0
1539627547.336,15.625,35.645,33.691,38.574,47.852,0
1539627547.340,24.414,32.227,35.645,19.531,1.953,0
1539627547.344,22.461,33.203,33.203,20.020,-13.184,0
1539627547.348,19.531,39.062,29.785,36.133,10.742,0
1539627547.352,25.391,38.574,30.273,44.434,17.578,0
1539627547.356,24.902,36.133,33.203,45.898,22.461,0
1539627547.360,20.508,33.203,40.527,55.176,11.230,0
1539627547.364,38.574,33.203,42.969,47.363,24.902,1
1539627547.367,33.691,36.621,39.551,43.457,-18.066,0
1539627547.371,13.184,34.668,38.086,59.570,-23.926,0
1539627547.375,6.836,32.715,31.738,53.223,5.859,0
1539627547.379,12.207,30.273,34.180,41.504,-35.645,0
1539627547.383,19.043,28.809,37.598,28.809,-53.223,0
1539627547.387,29.785,32.715,35.645,35.156,-32.227,0
1539627547.391,30.762,32.227,35.156,39.062,43.945,0
1539627547.395,19.531,31.738,32.227,15.625,29.785,0
1539627547.399,20.020,34.668,30.273,26.367,28.320,0
1539627547.403,29.785,36.621,30.273,41.504,12.207,0
1539627547.407,32.227,35.645,33.203,39.062,-2.441,0
1539627547.410,18.066,37.598,33.203,39.062,73.730,0
1539627547.414,11.719,39.062,39.062,42.969,39.551,0
1539627547.418,20.508,37.109,38.574,40.039,40.039,0
1539627547.422,19.043,32.715,35.645,43.457,71.289,0
1539627547.426,16.113,35.156,40.039,35.645,53.711,0
1539627547.430,18.555,36.621,34.180,26.367,75.195,0
1539627547.434,17.090,34.180,30.762,40.527,70.801,0
1539627547.438,20.020,33.691,32.715,41.504,30.273,0
1539627547.442,16.113,31.738,28.320,39.551,5.371,0
1539627547.446,10.254,30.273,32.227,31.738,44.434,0
1539627547.449,24.414,35.156,32.715,38.574,53.223,0
1539627547.453,37.109,41.016,24.902,48.828,41.016,0
1539627547.457,32.227,34.180,30.273,37.598,25.391,0
1539627547.461,20.996,27.344,41.504,28.320,12.695,0
1539627547.465,2.441,25.879,45.898,21.484,18.066,0
1539627547.469,-0.488,25.391,48.340,29.785,1.465,0
1539627547.473,5.859,26.855,47.852,36.133,12.695,0
1539627547.477,9.766,30.273,46.387,14.160,48.828,0
1539627547.481,26.367,32.715,41.016,10.254,23.438,0
1539627547.485,20.996,32.715,37.109,23.438,52.246,0
1539627547.489,8.301,29.785,38.086,40.527,81.055,0
1539627547.492,12.695,29.785,38.086,36.621,68.848,0
1539627547.496,15.137,31.250,38.086,27.832,49.316,0
1539627547.500,7.324,31.738,39.062,30.762,55.176,0
1539627547.504,4.883,31.738,37.109,36.133,61.035,0
1539627547.508,17.090,32.227,32.715,36.621,55.664,0
1539627547.512,14.160,32.715,32.227,50.781,58.594,0
1539627547.516,4.395,31.250,35.645,41.992,26.367,0
1539627547.520,19.043,30.762,40.039,18.555,-22.461,0
1539627547.524,20.996,31.250,35.645,22.949,-35.645,0
1539627547.528,12.207,31.250,32.227,25.879,-27.344,0
1539627547.532,31.738,34.180,33.691,32.227,-20.996,0
1539627547.535,27.344,36.133,34.668,22.949,2.441,0
1539627547.539,14.160,35.156,33.691,22.949,-15.625,0
1539627547.543,23.926,36.133,31.250,45.898,-3.418,0
1539627547.547,24.414,34.668,30.273,37.598,36.133,0
1539627547.551,20.996,35.156,32.227,16.113,7.812,0
1539627547.555,22.461,37.109,36.621,32.715,40.527,0
1539627547.559,24.902,32.715,40.527,36.621,69.336,0
1539627547.563,18.066,31.738,32.227,18.555,47.363,0
1539627547.567,9.277,32.715,27.344,11.719,-22.949,0
1539627547.571,1.953,30.762,28.809,31.250,-29.785,0
1539627547.574,6.348,32.227,29.785,42.969,13.672,0
1539627547.578,8.301,33.691,29.785,41.992,26.367,0
1539627547.582,12.207,34.668,29.785,42.969,72.754,0
1539627547.586,16.113,34.180,34.668,17.090,17.090,0
1539627547.590,16.602,34.668,37.109,14.648,-6.836,0
1539627547.594,24.902,34.668,36.621,25.391,54.199,0
1539627547.598,4.883,34.668,34.180,32.715,36.621,0
1539627547.602,-3.906,36.133,35.156,30.762,-2.930,0
1539627547.606,11.719,33.203,36.133,37.109,46.875,0
1539627547.610,12.695,36.621,28.809,33.203,53.223,0
1539627547.614,13.672,38.574,23.438,-3.906,43.457,0
1539627547.617,8.789,35.645,24.902,6.348,93.750,0
1539627547.621,23.926,35.645,27.832,28.809,82.520,0
1539627547.625,12.207,33.203,24.902,31.738,42.480,0
1539627547.629,-14.648,33.203,29.785,19.043,15.625,0
1539627547.633,-6.836,31.738,32.715,10.742,3.906,0
1539627547.637,2.441,30.273,32.715,18.555,31.250,0
1539627547.641,5.859,32.227,30.762,18.066,34.668,0
1539627547.645,-7.324,30.273,30.762,18.555,0.000,0
1539627547.649,-20.020,27.832,34.668,16.113,2.441,0
1539627547.653,-1.465,30.273,37.598,-0.488,84.961,0
1539627547.657,-5.859,33.203,36.621,19.531,72.754,0
1539627547.660,-7.812,34.180,31.250,29.297,10.254,0
1539627547.664,27.344,35.156,30.762,21.484,24.902,0
1539627547.668,18.555,38.086,33.691,26.367,20.020,0
1539627547.672,9.766,40.039,35.645,42.969,36.133,0
1539627547.676,14.160,36.133,33.203,32.227,106.934,0
1539627547.680,14.648,33.691,33.203,7.812,108.398,0
1539627547.684,7.324,30.762,36.133,34.668,30.273,0
1539627547.688,0.488,30.273,34.668,38.574,-9.766,0
1539627547.692,2.441,32.227,34.668,-7.324,37.598,0
1539627547.696,15.137,35.156,32.227,11.719,54.199,0
1539627547.699,20.996,36.621,31.250,35.645,50.293,0
1539627547.703,9.277,33.691,34.180,43.945,76.660,0
1539627547.707,9.277,35.156,36.133,41.504,25.879,0
1539627547.711,22.461,40.527,34.668,31.250,28.809,0
1539627547.715,20.996,38.574,36.133,29.785,87.891,0
1539627547.719,11.230,35.156,38.574,33.691,54.688,0
1539627547.723,2.930,34.668,38.086,32.715,16.113,0
1539627547.727,12.695,34.180,36.621,12.695,34.180,0
1539627547.731,30.762,32.715,32.715,19.531,9.766,0
1539627547.735,20.508,30.273,32.715,29.785,-1.953,0
1539627547.739,23.438,36.621,31.250,26.367,55.664,0
1539627547.742,13.184,36.133,22.949,10.254,104.004,0
1539627547.746,-4.395,35.645,21.484,6.348,105.469,0
1539627547.750,-2.441,39.551,20.996,17.578,44.922,0
1539627547.754,-8.789,39.062,22.949,3.906,19.043,0
1539627547.758,-6.836,37.109,28.809,3.418,61.035,0
1539627547.762,-4.883,33.203,31.738,6.836,31.738,0
1539627547.766,-1.953,35.156,27.832,7.324,74.219,0
1539627547.770,6.836,37.598,23.438,16.113,88.867,0
1539627547.774,15.625,34.180,25.879,25.879,37.598,0
1539627547.778,23.926,36.621,29.785,28.809,27.344,0
1539627547.782,15.137,38.086,28.809,23.438,21.484,0
1539627547.785,-16.602,34.180,31.250,19.531,100.098,0
1539627547.789,-9.766,33.691,29.785,9.766,94.238,0
1539627547.793,12.695,35.645,22.949,11.230,20.020,0
1539627547.797,4.395,37.109,22.949,13.672,74.219,0
1539627547.801,10.742,35.645,29.297,18.555,83.496,0
1539627547.805,14.160,33.691,35.156,22.461,11.719,0
1539627547.809,1.953,34.668,32.715,23.926,32.715,0
1539627547.813,-5.859,37.598,33.691,7.812,55.176,0
1539627547.817,-4.395,38.086,35.156,8.301,30.762,0
1539627547.821,2.930,37.598,33.691,32.227,-11.230,0
1539627547.824,-2.930,35.645,37.109,29.297,14.160,0
1539627547.828,-5.859,32.715,37.598,19.043,61.035,0
1539627547.832,-9.766,32.715,33.691,17.578,37.598,0
1539627547.836,-6.836,34.180,32.715,21.484,-12.695,0
1539627547.840,10.254,35.645,30.762,21.973,-21.973,0
1539627547.844,19.043,33.203,29.785,17.578,-23.926,0
1539627547.848,23.926,32.715,31.250,16.113,-2.930,0
1539627547.852,14.648,36.133,32.715,16.602,17.090,0
1539627547.856,6.836,38.574,28.809,22.461,11.230,0
1539627547.860,19.043,37.598,29.785,21.973,66.895,0
1539627547.864,13.184,37.598,33.203,19.043,59.570,0
1539627547.867,7.324,36.621,31.738,20.996,75.684,0
1539627547.871,14.648,35.156,37.598,17.578,51.270,0
1539627547.875,8.789,37.109,41.016,28.320,-14.160,0
1539627547.879,-4.395,34.180,40.039,42.480,2.930,0
1539627547.883,-17.578,32.715,41.504,24.414,45.410,0
1539627547.887,-4.883,35.645,38.086,9.766,23.438,0
1539627547.891,8.301,36.133,35.645,33.691,-8.301,0
1539627547.895,7.324,38.574,35.645,37.598,10.254,0
1539627547.899,8.789,40.527,33.691,31.250,2.930,0
1539627547.903,1.953,39.062,32.227,26.855,20.020,0
1539627547.907,0.000,36.621,35.645,24.414,59.082,0
1539627547.910,8.301,37.109,37.109,28.320,26.367,0
1539627547.914,22.461,36.621,33.203,15.137,73.242,0
1539627547.918,4.395,35.645,33.203,11.230,70.312,0
1539627547.922,4.395,37.109,30.273,18.555,6.836,0
1539627547.926,20.020,36.621,36.621,34.668,10.254,0
1539627547.930,18.555,36.621,27.344,29.297,44.922,0
1539627547.934,27.344,38.086,18.066,20.996,63.965,0
1539627547.938,25.879,36.133,31.250,32.227,48.340,0
1539627547.942,23.438,35.645,34.668,30.762,31.250,0
1539627547.946,28.320,37.109,34.180,42.969,17.090,0
1539627547.949,17.578,38.574,37.598,34.180,-18.066,0
1539627547.953,13.672,39.062,36.133,11.230,-2.930,0
1539627547.957,13.672,34.180,38.574,24.414,26.855,0
1539627547.961,-6.348,29.297,41.504,29.297,21.973,0
1539627547.965,-1.465,31.738,35.156,36.133,27.344,0
1539627547.969,20.508,34.180,35.645,28.320,0.488,0
1539627547.973,22.461,36.133,40.039,20.996,-21.973,0
1539627547.977,12.695,36.133,37.109,41.504,27.344,0
1539627547.981,2.930,36.621,35.645,32.227,72.754,0
1539627547.985,4.883,32.227,33.691,35.645,65.918,0
1539627547.989,22.949,31.250,31.250,56.641,60.059,0
1539627547.992,24.902,33.691,38.574,48.340,58.594,0
1539627547.996,11.719,30.273,39.062,32.715,28.809,0
1539627548.000,9.277,28.320,35.156,32.715,1.465,0
1539627548.004,11.719,31.738,35.645,40.039,5.859,0
1539627548.008,9.766,31.250,36.621,42.969,33.691,0
1539627548.012,7.812,27.832,35.645,20.508,126.953,0
1539627548.016,-0.488,29.297,35.645,19.531,104.492,0
1539627548.020,7.324,29.297,40.039,31.250,-10.254,0
1539627548.024,30.273,33.691,36.621,33.203,3.418,0
1539627548.028,37.598,43.945,35.645,40.527,11.230,0
1539627548.032,41.504,42.480,34.668,45.410,35.156,0
1539627548.035,22.949,34.180,37.109,61.523,2.930,0
1539627548.039,0.977,34.180,42.480,45.898,21.484,0
1539627548.043,2.441,32.715,39.062,19.043,66.895,0
1539627548.047,11.230,31.250,37.598,39.551,-16.113,0
1539627548.051,17.578,37.109,39.551,42.969,20.996,0
1539627548.055,18.555,37.598,41.016,28.320,49.805,0
1539627548.059,21.484,38.086,40.527,35.156,-6.836,0
1539627548.063,24.414,38.086,33.203,22.949,-18.066,0
1539627548.067,19.043,35.645,25.879,22.461,7.324,0
1539627548.071,-2.441,31.738,28.809,37.109,98.633,0
1539627548.074,-3.906,31.738,35.156,38.086,101.562,0
1539627548.078,19.531,34.668,36.621,34.180,58.594,0
1539627548.082,23.926,35.156,35.645,28.809,93.750,0
1539627548.086,7.324,34.668,39.551,36.621,86.914,0
1539627548.090,4.883,34.668,36.133,17.090,48.340,0
1539627548.094,20.020,35.156,30.762,3.418,41.992,0
1539627548.098,32.227,34.180,32.715,9.766,55.176,0
1539627548.102,29.297,35.645,27.832,20.020,68.848,0
1539627548.106,20.996,34.180,23.926,14.648,46.875,0
1539627548.110,22.949,34.668,28.809,10.742,26.855,0
1539627548.114,16.602,37.598,34.180,23.926,46.387,0
1539627548.117,10.742,34.180,33.691,16.113,56.641,0
1539627548.121,14.160,32.715,32.715,11.719,55.664,0
1539627548.125,-9.766,33.691,34.668,26.367,17.090,0
1539627548.129,-13.672,30.273,38.086,32.227,27.832,0
1539627548.133,16.602,31.250,39.062,20.020,62.500,0
1539627548.137,23.438,35.156,31.738,33.203,41.992,0
1539627548.141,20.996,36.133,29.785,35.645,63.477,0
1539627548.145,22.461,35.156,34.668,13.672,52.246,0
1539627548.149,12.695,34.180,37.109,12.207,17.578,0
1539627548.153,6.836,33.203,34.180,25.879,14.160,0
1539627548.157,-0.488,32.227,34.180,43.457,-10.254,0
1539627548.160,-6.836,32.715,33.203,50.293,16.602,0
1539627548.164,-2.441,29.785,31.250,41.504,23.926,0
1539627548.168,-0.977,29.785,35.645,15.137,-6.836,0
1539627548.172,1.953,31.738,33.203,13.672,-31.250,0
1539627548.176,11.230,30.273,29.785,25.879,-1.953,0
1539627548.180,10.254,27.832,29.297,32.227,74.707,0
1539627548.184,5.371,32.227,32.227,34.180,80.566,0
1539627548.188,8.301,36.133,32.227,20.508,65.430,0
1539627548.192,9.766,33.691,31.738,21.484,20.020,0
1539627548.196,10.254,32.715,31.738,27.344,-0.977,0
1539627548.199,20.020,36.133,27.344,32.227,25.879,0
1539627548.203,12.695,37.109,22.461,30.762,4.883,0
1539627548.207,5.859,36.133,27.344,14.160,-29.297,0
1539627548.211,6.348,37.109,34.180,17.090,-2.441,0
1539627548.215,3.906,37.598,38.574,26.855,-10.254,0
1539627548.219,7.324,37.109,41.992,35.645,-18.066,0
1539627548.223,24.414,34.668,36.133,32.227,29.297,0
1539627548.227,14.648,35.645,34.180,15.625,26.367,0
1539627548.231,2.441,37.109,31.250,17.090,-5.371,0
1539627548.235,12.207,36.621,27.344,27.344,-4.395,0
1539627548.239,12.695,37.598,29.297,31.250,-11.719,0
1539627548.242,5.859,36.621,31.738,41.016,10.254,0
1539627548.246,13.184,38.574,32.715,42.969,-8.301,0
1539627548.250,9.766,35.645,34.668,26.855,-49.316,0
1539627548.254,8.789,34.668,40.039,22.461,-1.953,0
1539627548.258,25.879,40.039,38.574,29.297,25.879,0
1539627548.262,30.762,35.645,33.203,40.039,50.293,0
1539627548.266,16.113,29.785,32.715,28.809,40.527,0
1539627548.270,2.441,29.297,33.203,23.438,24.902,0
1539627548.274,15.137,33.691,33.691,28.320,-3.418,0
1539627548.278,31.738,37.598,34.668,24.414,0.977,0
1539627548.282,20.996,34.668,34.668,27.832,31.738,0
1539627548.285,19.531,32.715,37.598,35.645,19.531,0
1539627548.289,25.391,36.621,37.598,34.180,-17.090,0
1539627548.293,20.996,38.574,35.645,25.391,14.648,0
1539627548.297,6.348,37.109,37.109,38.086,16.113,0
1539627548.301,-8.301,40.527,38.086,29.785,-0.488,0
1539627548.305,6.836,35.156,35.156,21.484,20.020,0
1539627548.309,6.348,30.762,34.180,31.738,68.359,0
1539627548.313,11.230,37.598,34.668,36.621,61.523,0
1539627548.317,37.598,41.016,34.668,32.227,41.016,0
1539627548.321,38.086,37.109,32.715,22.461,74.707,0
1539627548.324,31.250,34.668,34.668,16.602,66.406,0
1539627548.328,11.719,33.691,35.156,23.926,27.832,0
1539627548.332,13.184,34.668,26.855,32.715,13.672,0
1539627548.336,25.879,37.109,27.344,42.480,36.133,0
1539627548.340,19.043,31.250,30.273,32.227,48.340,0
1539627548.344,8.301,23.926,32.227,27.832,12.207,0
1539627548.348,2.441,28.320,30.273,39.551,11.719,0
1539627548.352,10.254,35.645,26.855,29.297,2.930,0
1539627548.356,12.207,36.133,27.832,22.949,-2.441,0
1539627548.360,9.277,37.598,29.297,18.066,41.016,0
1539627548.364,12.695,40.527,20.020,20.508,35.156,0
1539627548.367,24.414,40.527,18.066,20.020,59.082,0
1539627548.371,31.250,38.086,30.273,30.762,45.898,0
1539627548.375,18.066,35.645,31.250,31.738,12.695,0
1539627548.379,4.883,37.109,25.879,17.090,7.812,0
1539627548.383,0.488,39.551,28.809,16.113,4.395,0
1539627548.387,4.883,38.574,25.879,7.812,-11.719,0
1539627548.391,33.691,36.621,21.484,9.277,57.129,0
1539627548.395,38.086,38.574,24.414,24.902,107.910,0
1539627548.399,17.090,37.109,29.785,29.297,25.879,0
1539627548.403,8.301,30.273,36.133,24.414,60.059,0
1539627548.407,1.953,29.297,33.203,22.461,56.641,0
1539627548.410,-4.883,32.227,33.203,31.250,0.977,0
1539627548.414,-4.883,34.180,40.039,33.691,53.223,0
1539627548.418,7.812,32.227,33.203,29.297,32.715,0
1539627548.422,6.348,32.715,27.832,31.250,13.672,0
1539627548.426,-9.766,35.156,34.668,16.602,20.996,0
1539627548.430,7.324,33.691,34.668,14.648,25.391,0
1539627548.434,20.996,34.668,27.832,36.133,24.414,0
1539627548.438,7.812,35.645,32.227,24.902,15.625,0
1539627548.442,-1.953,32.715,35.645,28.809,33.691,0
1539627548.446,-1.465,33.691,31.250,38.086,47.852,0
1539627548.449,2.930,36.133,32.227,23.926,65.918,0
1539627548.453,20.020,34.668,36.133,23.926,5.859,0
1539627548.457,18.066,36.621,36.621,23.438,-22.461,0
1539627548.461,12.695,38.574,38.574,26.367,35.645,0
1539627548.465,12.207,36.621,37.598,34.668,55.664,0
1539627548.469,15.137,36.621,34.180,17.578,60.547,0
1539627548.473,24.902,34.668,35.645,23.926,79.102,0
1539627548.477,16.602,34.180,34.180,33.203,36.133,0
1539627548.481,13.672,35.645,31.738,27.832,21.484,0
1539627548.485,8.301,36.133,32.715,36.133,42.969,0
1539627548.489,6.836,34.180,31.250,34.668,11.230,0
1539627548.492,20.996,32.227,34.668,32.715,44.434,0
1539627548.496,28.320,35.645,36.133,39.062,73.242,0
1539627548.500,20.020,40.039,32.227,26.855,67.383,0
1539627548.504,5.859,39.062,30.273,22.461,47.852,0
1539627548.508,4.395,36.133,31.738,35.645,34.668,0
1539627548.512,4.883,32.715,37.109,35.156,17.578,0
1539627548.516,3.906,28.320,40.527,35.645,21.973,0
1539627548.520,14.160,33.203,41.016,30.273,23.926,0
1539627548.524,21.973,37.109,36.133,20.996,-36.621,0
1539627548.528,13.672,31.738,34.668,33.203,19.531,0
1539627548.532,-2.930,30.273,35.645,37.109,110.352,0
1539627548.535,-3.418,30.762,34.180,28.320,72.266,0
1539627548.539,27.832,32.227,35.156,29.297,2.441,0
1539627548.543,35.156,33.691,37.598,38.086,-2.930,0
1539627548.547,26.367,30.762,36.133,41.016,42.969,0
1539627548.551,15.137,30.273,32.227,32.227,54.688,0
1539627548.555,10.742,32.227,33.691,20.996,5.371,0
1539627548.559,20.996,33.691,31.738,24.902,-2.441,0
1539627548.563,22.949,35.645,30.762,31.250,25.391,0
1539627548.567,28.320,36.133,29.785,25.879,43.945,0
1539627548.571,17.578,40.527,25.879,21.484,50.293,0
1539627548.574,23.438,47.363,26.367,41.016,28.320,0
1539627548.578,27.344,41.504,30.762,43.945,8.789,0
1539627548.582,10.742,32.715,35.156,29.297,1.953,0
1539627548.586,0.000,27.344,37.109,30.762,12.207,0
1539627548.590,-20.996,26.367,36.133,26.367,12.695,0
1539627548.594,-8.789,29.785,36.133,26.367,-7.812,0
1539627548.598,12.207,28.809,40.527,31.738,17.090,0
1539627548.602,12.207,30.273,39.551,30.762,31.250,0
1539627548.606,9.277,33.203,39.062,22.461,67.871,0
1539627548.610,3.906,33.203,35.156,25.391,56.641,0
1539627548.614,18.066,33.203,35.156,27.344,-1.953,0
1539627548.617,11.719,30.273,38.086,19.043,41.016,0
1539627548.621,1.465,28.320,35.156,23.926,60.059,0
1539627548.625,7.812,33.691,27.832,30.762,53.711,0
1539627548.629,7.812,34.668,29.297,44.922,67.871,1
1539627548.633,13.672,31.250,33.691,33.203,55.664,0
1539627548.637,14.648,31.250,33.691,23.438,41.992,0
1539627548.641,22.461,32.715,39.551,27.832,41.016,0
1539627548.645,24.902,33.203,38.086,28.809,46.387,0
1539627548.649,13.672,33.203,34.180,46.387,53.223,0
1539627548.653,10.254,34.180,33.203,42.969,-7.324,0
1539627548.657,13.184,36.133,31.738,25.879,10.254,0
1539627548.660,6.836,36.133,32.227,22.949,59.570,0
1539627548.664,3.906,35.156,33.691,17.578,89.355,0
1539627548.668,5.371,35.645,35.156,20.996,52.734,0
1539627548.672,9.277,34.180,35.645,37.109,34.668,0
1539627548.676,3.906,31.738,39.062,12.207,23.926,0
1539627548.680,-10.742,36.133,36.133,-4.395,17.090,0
1539627548.684,0.977,36.621,29.297,21.973,88.379,0
1539627548.688,6.348,32.227,32.227,22.949,31.250,0
1539627548.692,17.578,36.621,33.691,26.855,64.453,0
1539627548.696,20.508,38.086,28.809,31.738,148.926,0
1539627548.699,22.461,41.504,27.832,27.344,83.496,0
1539627548.703,21.484,44.434,28.320,32.715,45.898,0
1539627548.707,1.953,38.086,30.273,20.020,28.320,0
1539627548.711,7.324,40.039,30.762,28.809,30.762,0
1539627548.715,11.719,43.457,31.250,38.574,46.875,0
1539627548.719,7.812,38.086,37.598,0.000,31.250,0
1539627548.723,21.484,31.250,39.062,21.973,61.523,0
1539627548.727,20.020,32.715,30.762,51.270,19.531,0
1539627548.731,7.324,40.039,26.855,30.762,-20.508,0
1539627548.735,-6.348,40.039,26.367,21.973,-5.859,0
1539627548.739,3.418,37.598,24.414,24.902,28.320,0
1539627548.742,30.273,38.574,26.855,22.461,82.031,0
1539627548.746,23.438,39.551,31.250,29.297,70.312,0
1539627548.750,10.254,41.504,31.250,20.020,24.414,0
1539627548.754,12.207,39.062,28.320,13.672,39.551,0
1539627548.758,13.184,36.621,30.762,30.273,125.000,0
1539627548.762,11.230,39.062,28.809,9.277,87.402,0
1539627548.766,20.508,42.480,21.973,18.555,38.086,0
1539627548.770,20.508,41.016,26.367,24.414,27.832,0
1539627548.774,-4.883,37.598,28.320,11.230,7.324,0
1539627548.778,0.488,35.156,19.531,24.902,17.578,0
1539627548.782,17.090,30.762,25.391,25.879,-5.371,0
1539627548.785,7.812,29.297,31.250,25.879,25.391,0
1539627548.789,2.930,31.738,35.156,30.273,72.754,0
1539627548.793,3.418,38.574,36.133,27.832,22.461,0
1539627548.797,5.859,38.086,32.715,9.277,-29.785,0
1539627548.801,16.113,35.645,33.203,0.977,-32.227,0
1539627548.805,20.996,39.551,28.809,16.602,31.250,0
1539627548.809,7.812,34.668,29.297,35.645,90.820,0
1539627548.813,2.930,29.297,35.645,36.621,19.531,0
1539627548.817,-4.395,34.668,36.133,24.902,33.691,0
1539627548.821,5.371,37.598,27.832,22.461,118.164,0
1539627548.824,2.930,36.133,27.344,8.301,82.520,0
1539627548.828,2.441,35.156,35.156,18.555,50.781,0
1539627548.832,28.809,34.180,34.180,37.598,46.875,0
1539627548.836,33.203,33.691,29.297,34.180,17.090,0
1539627548.840,17.090,34.180,32.227,31.738,31.250,0
1539627548.844,3.418,33.203,34.668,31.250,17.578,0
1539627548.848,6.836,33.203,34.180,36.133,40.039,0
1539627548.852,5.859,30.762,36.133,25.879,70.801,0
1539627548.856,3.906,30.762,33.203,18.066,-4.395,0
1539627548.860,6.836,36.621,27.344,36.621,13.672,0
1539627548.864,5.371,37.109,28.809,33.691,49.805,0
1539627548.867,17.090,35.156,31.250,-3.906,6.348,0
1539627548.871,13.184,35.156,31.250,0.488,7.812,0
1539627548.875,12.207,37.598,26.855,22.461,45.410,0
1539627548.879,11.719,35.645,30.273,19.043,64.453,0
1539627548.883,13.184,33.203,36.621,27.832,35.645,0
1539627548.887,7.812,36.133,40.039,15.137,17.090,0
1539627548.891,0.000,38.086,42.969,13.672,40.039,0
1539627548.895,0.488,37.109,38.086,28.809,-10.254,0
1539627548.899,-0.977,36.621,33.203,25.391,-61.523,0
1539627548.903,-10.254,37.109,33.203,23.438,12.695,0
1539627548.907,7.324,38.086,35.156,28.320,29.785,0
1539627548.910,28.809,40.039,34.668,37.109,-23.438,0
1539627548.914,9.766,40.039,32.227,17.090,22.949,0
1539627548.918,8.301,42.480,32.715,6.836,25.879,0
1539627548.922,18.066,50.781,27.344,22.461,0.000,0
1539627548.926,21.973,50.293,23.926,43.457,5.371,0
1539627548.930,27.832,43.945,28.809,35.645,-6.348,0
1539627548.934,17.090,38.086,42.969,17.578,38.086,0
1539627548.938,16.602,32.715,46.875,31.738,59.570,0
1539627548.942,22.949,35.645,41.504,39.551,17.578,0
1539627548.946,13.184,36.133,39.551,30.273,22.949,0
1539627548.949,5.859,35.156,41.504,21.484,44.922,0
1539627548.953,9.766,37.598,42.480,28.320,34.180,0
1539627548.957,14.160,37.598,40.527,32.715,22.949,0
1539627548.961,21.484,36.621,38.574,18.066,-7.324,0
1539627548.965,26.367,33.691,38.086,19.043,40.527,0
1539627548.969,20.020,33.691,34.668,9.277,125.000,0
1539627548.973,8.789,35.156,29.785,-1.465,85.938,0
1539627548.977,10.254,36.133,26.367,2.930,62.500,0
1539627548.981,19.531,37.598,20.020,3.418,50.293,0
1539627548.985,6.348,36.133,24.902,9.766,89.844,0
1539627548.989,6.836,34.668,37.598,13.672,92.773,0
1539627548.992,20.020,35.156,43.945,21.484,29.297,0
1539627548.996,12.695,32.227,41.504,27.344,16.113,0
1539627549.000,16.602,32.227,39.062,38.086,17.090,0
1539627549.004,27.832,32.227,42.969,33.203,31.250,0
1539627549.008,3.418,31.738,42.480,24.414,28.320,0
1539627549.012,-0.488,31.250,36.133,29.297,-19.531,0
1539627549.016,3.906,30.762,34.668,36.133,-40.527,0
1539627549.020,-1.465,32.227,39.062,32.715,5.371,0
1539627549.024,18.066,34.668,36.133,17.090,-11.719,0
1539627549.028,24.414,36.621,33.203,11.230,-5.371,0
1539627549.032,12.207,35.645,33.691,29.297,51.270,0
1539627549.035,11.230,39.062,33.203,27.344,33.203,0
1539627549.039,19.043,41.992,30.762,17.578,45.898,0
1539627549.043,17.578,38.574,31.738,29.297,59.570,0
1539627549.047,9.277,35.156,33.203,33.203,45.410,0
1539627549.051,20.020,33.691,34.180,44.434,18.555,0
1539627549.055,24.414,31.738,40.039,32.715,18.555,0
1539627549.059,9.766,30.273,31.738,17.578,64.453,0
1539627549.063,2.441,31.738,25.879,31.738,48.340,0
1539627549.067,9.277,32.227,29.785,43.457,59.082,0
1539627549.071,25.391,33.203,30.273,31.738,90.332,0
1539627549.074,19.531,32.715,37.109,13.672,70.312,0
1539627549.078,3.418,30.762,39.062,28.320,72.266,0
1539627549.082,4.395,32.715,36.133,36.133,67.871,0
1539627549.086,5.371,30.273,33.203,36.621,45.410,0
1539627549.090,-0.488,26.855,33.203,39.551,17.578,0
1539627549.094,-3.906,26.367,35.156,29.297,29.785,0
1539627549.098,4.395,26.855,36.133,31.738,-1.465,0
1539627549.102,10.254,26.855,39.551,42.480,-42.969,0
1539627549.106,8.789,28.320,37.109,35.645,-49.316,0
1539627549.110,2.930,34.668,32.715,26.367,0.488,0
1539627549.114,2.441,36.621,36.133,22.949,66.406,0
1539627549.117,13.184,36.621,33.691,48.340,70.312,0
1539627549.121,21.973,38.086,35.156,34.180,109.375,0
1539627549.125,26.367,36.133,41.016,-1.465,66.895,0
1539627549.129,20.508,38.574,44.434,21.484,-13.672,0
1539627549.133,20.020,41.504,41.992,39.062,63.477,0
1539627549.137,16.602,34.668,36.621,53.711,84.473,0
1539627549.141,15.137,30.273,43.945,40.527,22.949,0
1539627549.145,40.527,32.715,41.016,27.832,5.371,0
1539627549.149,38.574,39.551,32.715,35.156,28.809,0
1539627549.153,-3.418,42.480,32.715,35.156,19.043,0
1539627549.157,-0.488,38.574,29.297,22.949,-16.602,0
1539627549.160,26.367,39.062,27.344,19.531,-11.230,0
1539627549.164,13.672,39.062,26.855,32.715,41.016,0
1539627549.168,-4.395,37.109,27.832,26.855,62.012,0
1539627549.172,4.395,36.133,32.715,14.160,56.152,0
1539627549.176,19.043,33.691,34.668,23.926,41.992,0
1539627549.180,24.902,34.668,34.180,37.598,21.973,0
1539627549.184,18.555,35.156,35.156,46.387,29.297,0
1539627549.188,7.324,31.738,38.086,36.133,62.012,0
1539627549.192,-1.465,30.762,39.551,26.367,70.801,0
1539627549.196,14.160,33.691,28.320,18.555,-44.922,0
1539627549.199,23.438,37.109,20.020,13.184,-65.918,0
1539627549.203,15.625,36.133,21.973,26.367,17.090,0
1539627549.207,13.672,38.086,23.926,36.133,85.938,0
1539627549.211,14.160,40.039,33.203,28.320,96.680,0
1539627549.215,8.789,34.180,41.016,26.367,35.645,0
1539627549.219,10.742,33.203,39.062,23.438,52.734,0
1539627549.223,1.465,31.738,32.227,12.207,6.836,0
1539627549.227,-11.719,30.762,28.809,18.066,-18.555,0
1539627549.231,23.438,37.109,29.297,22.461,-5.859,0
1539627549.235,20.996,37.598,28.809,30.273,-25.879,0
1539627549.239,-0.977,37.109,30.273,28.320,17.090,0
1539627549.242,3.418,35.156,33.203,36.133,0.977,0
1539627549.246,9.766,35.645,33.203,25.879,43.457,0
1539627549.250,20.020,41.992,35.156,19.531,67.383,0
1539627549.254,23.438,42.969,33.203,20.508,43.457,0
1539627549.258,23.926,40.039,26.855,10.742,47.852,0
1539627549.262,12.695,38.574,29.785,27.344,39.062,0
1539627549.266,7.324,38.574,29.785,28.809,78.125,0
1539627549.270,13.184,34.668,28.809,15.137,65.918,0
1539627549.274,13.672,32.227,31.738,8.789,-3.906,0
1539627549.278,20.020,34.668,29.785,26.367,-12.695,0
1539627549.282,15.625,36.133,27.832,36.621,17.090,0
1539627549.285,13.184,40.039,27.344,35.645,-0.488,0
1539627549.289,27.832,41.016,34.180,40.527,-19.043,0
1539627549.293,26.367,40.527,34.668,27.832,86.914,0
1539627549.297,36.621,42.969,32.227,35.156,90.332,0
1539627549.301,21.484,40.527,33.691,46.875,-4.883,0
1539627549.305,-10.254,39.551,34.180,10.742,8.789,0
1539627549.309,-11.230,40.039,31.738,9.277,39.062,0
1539627549.313,8.301,36.621,37.109,27.832,10.254,0
1539627549.317,13.672,36.621,44.434,13.672,0.488,0
1539627549.321,9.277,37.109,37.598,21.973,41.992,0
1539627549.324,7.324,37.109,36.133,37.598,10.742,0
1539627549.328,-1.465,35.156,41.016,31.738,8.789,0
1539627549.332,19.531,38.574,36.621,36.133,4.883,0
1539627549.336,22.461,39.551,28.809,45.410,-9.277,0
1539627549.340,-3.906,34.668,31.250,41.992,59.082,0
1539627549.344,9.766,36.621,35.156,19.531,56.641,0
1539627549.348,11.719,37.598,32.715,15.137,49.316,0
1539627549.352,5.859,38.086,31.250,29.297,46.387,0
1539627549.356,12.695,41.016,30.762,17.090,49.805,0
1539627549.360,16.602,41.504,28.809,15.625,48.828,0
1539627549.364,13.672,41.504,26.855,28.809,10.254,0
1539627549.367,18.066,38.574,28.809,28.809,14.160,0
1539627549.371,19.531,33.691,31.250,25.879,9.277,0
1539627549.375,13.184,37.109,29.297,23.926,-9.277,0
1539627549.379,18.555,37.109,32.715,34.668,1.953,0
1539627549.383,19.043,33.691,38.574,43.457,26.855,0
1539627549.387,3.418,33.203,33.691,5.859,82.520,0
1539627549.391,-5.371,32.227,27.832,3.418,65.430,0
1539627549.395,-6.348,29.297,29.297,23.926,0.977,0
1539627549.399,10.254,29.785,33.691,30.762,-4.883,0
1539627549.403,14.648,33.691,29.297,55.664,-24.902,0
1539627549.407,0.000,35.156,27.344,21.973,-4.395,0
1539627549.410,12.207,34.180,33.691,4.395,22.949,0
1539627549.414,14.160,34.668,35.156,26.855,21.484,0
1539627549.418,3.418,36.621,32.715,32.227,71.289,0
1539627549.422,3.418,34.668,32.715,30.273,41.504,0
1539627549.426,14.648,30.273,37.598,22.461,57.617,0
1539627549.430,12.207,32.227,39.551,20.020,56.152,0
1539627549.434,5.859,34.668,38.086,10.742,0.977,0
1539627549.438,14.648,31.738,37.598,15.625,6.348,0
1539627549.442,20.508,34.668,39.062,28.809,8.301,0
1539627549.446,30.273,35.156,34.668,30.762,35.156,0
1539627549.449,17.578,30.762,34.668,21.484,36.133,0
1539627549.453,5.859,31.738,39.551,19.043,42.480,0
1539627549.457,14.160,30.273,31.738,41.016,91.309,0
1539627549.461,9.277,28.320,26.855,33.691,63.477,0
1539627549.465,13.184,30.762,27.832,21.484,-30.273,0
1539627549.469,-2.930,33.203,26.367,14.160,0.977,0
1539627549.473,-11.230,33.691,26.367,9.766,80.078,0
1539627549.477,12.695,34.180,26.367,26.367,96.680,0
1539627549.481,29.785,37.109,24.414,27.344,106.445,0
1539627549.485,19.531,38.574,28.809,30.762,71.289,0
1539627549.489,-1.465,34.180,33.203,30.762,30.273,0
1539627549.492,5.371,32.715,38.086,19.043,24.902,0
1539627549.496,24.902,34.668,41.016,23.926,63.477,0
1539627549.500,34.180,35.645,41.504,28.809,41.992,0
1539627549.504,19.531,33.203,37.598,34.668,29.785,0
1539627549.508,1.465,32.227,35.156,34.180,39.062,0
1539627549.512,0.000,37.598,30.762,24.414,50.781,0
1539627549.516,13.672,43.457,31.250,38.086,47.363,0
1539627549.520,14.648,37.598,34.668,38.574,58.105,0
1539627549.524,17.090,34.180,40.039,30.762,53.223,0
1539627549.528,14.160,34.180,45.898,23.438,-16.113,0
1539627549.532,8.301,30.762,42.480,23.926,20.508,0
1539627549.535,9.766,33.691,38.574,24.414,15.625,0
1539627549.539,2.441,34.180,42.480,24.414,-17.578,0
1539627549.543,8.301,30.762,42.969,18.066,19.043,0
1539627549.547,10.254,31.250,36.621,18.555,103.516,0
1539627549.551,7.324,32.227,39.062,30.273,78.613,0
1539627549.555,16.602,31.738,40.527,40.039,17.578,0
1539627549.559,21.973,31.738,38.086,52.246,12.695,0
1539627549.563,2.441,31.250,41.016,33.691,-5.371,0
1539627549.567,-5.859,32.715,41.992,24.414,57.617,0
1539627549.571,13.672,35.156,39.062,41.992,55.664,0
1539627549.574,15.625,34.668,39.062,17.090,29.297,0
1539627549.578,18.066,36.133,32.715,8.789,58.594,0
1539627549.582,7.324,37.109,34.668,32.715,-12.207,0
1539627549.586,14.160,36.621,41.992,43.945,25.879,0
1539627549.590,25.879,35.645,40.039,46.387,57.129,0
1539627549.594,19.043,32.715,41.016,27.832,-32.715,0
1539627549.598,20.996,34.668,42.480,24.902,-8.301,0
1539627549.602,31.250,37.598,40.527,26.855,-6.836,0
1539627549.606,24.414,33.691,38.086,41.016,16.602,0
1539627549.610,14.160,32.227,36.621,22.949,32.715,0
1539627549.614,-0.977,30.273,35.156,8.789,18.555,0
1539627549.617,4.883,33.691,31.250,30.273,48.828,0
1539627549.621,14.160,39.551,31.738,27.344,41.016,0
1539627549.625,-9.766,35.156,32.715,25.391,44.434,0
1539627549.629,-16.602,32.227,28.809,17.090,93.750,0
1539627549.633,-10.742,31.250,30.273,8.301,83.496,0
1539627549.637,0.000,34.668,33.203,15.137,44.434,0
1539627549.641,15.137,39.062,34.180,23.926,-7.324,0
1539627549.645,16.602,36.133,31.250,25.879,-19.531,0
1539627549.649,-0.488,34.180,34.180,21.484,14.648,0
1539627549.653,5.859,33.691,37.598,32.715,63.965,0
1539627549.657,13.672,32.227,37.109,18.066,43.457,0
1539627549.660,3.418,33.203,33.691,1.953,17.578,0
1539627549.664,16.602,35.645,32.715,29.297,56.641,0
1539627549.668,25.391,35.156,31.250,40.527,69.824,0
1539627549.672,18.066,36.621,31.250,28.809,34.180,0
1539627549.676,11.230,37.598,33.203,12.207,33.691,0
1539627549.680,12.207,35.156,31.250,19.043,72.266,0
1539627549.684,14.648,33.203,36.133,24.902,46.875,0
1539627549.688,15.137,29.297,41.016,29.785,23.438,0
1539627549.692,14.648,29.785,36.133,36.133,55.664,0
1539627549.696,6.348,29.297,37.109,10.742,77.148,0
1539627549.699,11.719,26.855,42.480,0.488,59.570,0
1539627549.703,33.691,28.809,33.691,44.434,85.449,0
1539627549.707,22.949,35.156,25.391,46.875,50.781,0
1539627549.711,7.812,43.945,23.926,22.461,-18.066,0
1539627549.715,21.973,41.992,26.367,24.902,34.668,0
1539627549.719,20.996,40.039,26.855,24.414,41.504,0
1539627549.723,21.973,42.969,26.367,26.855,16.113,0
1539627549.727,19.531,42.969,27.832,25.391,63.477,0
1539627549.731,14.160,41.016,29.297,17.578,86.914,0
1539627549.735,13.184,35.645,29.297,16.113,61.523,0
1539627549.739,2.930,32.227,26.367,20.996,37.109,0
1539627549.742,12.695,35.645,31.250,28.320,10.742,0
1539627549.746,16.602,41.504,34.668,51.270,46.875,0
1539627549.750,17.578,40.039,28.809,26.367,60.547,0
1539627549.754,38.574,40.527,27.344,5.371,12.695,0
1539627549.758,30.273,41.016,26.855,25.879,-18.555,0
1539627549.762,19.531,38.086,27.832,23.926,-28.809,0
1539627549.766,18.066,38.086,31.738,27.344,9.766,0
1539627549.770,10.254,38.086,32.715,34.668,55.176,0
1539627549.774,21.484,35.645,31.738,33.203,29.297,0
1539627549.778,22.949,35.645,28.320,26.855,16.113,0
1539627549.782,13.184,38.574,23.438,25.391,50.781,0
1539627549.785,7.324,36.133,23.438,20.020,7.812,0
1539627549.789,-5.371,35.645,23.926,29.785,1.953,0
1539627549.793,-0.488,37.109,22.949,34.668,22.461,0
1539627549.797,8.301,35.645,31.250,21.973,9.766,0
1539627549.801,11.719,37.109,34.668,24.414,48.340,0
1539627549.805,17.578,37.109,34.668,24.414,63.965,0
1539627549.809,1.953,37.109,34.668,19.043,21.484,0
1539627549.813,10.742,40.039,31.738,25.391,2.441,0
1539627549.817,33.203,42.480,32.715,29.785,45.410,0
1539627549.821,30.273,41.992,31.738,27.344,62.012,0
1539627549.824,37.598,40.527,26.367,22.949,22.949,0
1539627549.828,40.527,40.039,26.855,21.973,14.648,0
1539627549.832,14.648,33.691,32.227,21.973,67.871,0
1539627549.836,13.184,34.180,34.668,19.043,43.457,0
1539627549.840,24.414,36.133,35.156,6.348,-29.297,0
1539627549.844,18.555,34.668,33.203,-0.977,-11.230,0
1539627549.848,21.973,37.598,32.227,8.789,30.762,0
1539627549.852,20.996,44.922,30.273,15.625,44.922,0
1539627549.856,10.254,43.945,26.855,16.113,40.527,0
1539627549.860,-8.789,38.086,33.203,16.113,37.109,0
1539627549.864,-8.789,36.621,36.133,22.461,16.113,0
1539627549.867,-1.465,37.109,32.715,26.855,30.762,0
1539627549.871,-2.441,38.574,34.668,25.879,80.078,0
1539627549.875,-0.977,37.598,34.668,20.020,35.645,0
1539627549.879,10.254,39.062,31.738,8.301,-5.371,0
1539627549.883,26.367,39.062,36.133,23.438,36.621,0
1539627549.887,28.320,37.598,38.086,36.133,58.594,0
1539627549.891,14.160,40.039,36.133,23.926,76.172,0
1539627549.895,3.906,39.551,31.738,33.203,36.133,0
1539627549.899,19.043,35.156,29.297,26.367,-2.930,0
1539627549.903,9.277,30.762,31.250,7.324,-14.648,0
1539627549.907,-13.184,29.785,24.902,16.113,-41.016,0
1539627549.910,-5.859,35.645,19.531,30.273,2.441,0
1539627549.914,12.207,35.645,32.227,39.062,4.883,0
1539627549.918,8.789,30.762,38.574,42.969,23.926,0
1539627549.922,8.301,29.297,34.180,18.066,81.055,0
1539627549.926,30.762,31.250,32.227,19.531,72.754,0
1539627549.930,16.602,31.250,30.762,37.109,-0.977,0
1539627549.934,-1.953,31.250,30.273,30.762,-12.207,0
1539627549.938,8.789,34.180,30.762,41.504,30.762,0
1539627549.942,12.207,35.645,31.250,34.180,44.922,0
1539627549.946,2.441,31.250,33.203,6.348,21.484,0
1539627549.949,-0.488,31.738,31.738,10.742,-1.953,0
1539627549.953,17.090,32.715,28.320,20.996,15.625,0
1539627549.957,15.625,33.203,31.250,16.602,23.926,0
1539627549.961,8.301,34.668,34.668,26.367,26.367,0
1539627549.965,24.414,32.227,30.273,18.066,60.059,0
1539627549.969,37.598,30.762,24.902,8.301,47.852,0
1539627549.973,7.812,34.668,25.391,28.809,32.715,0
1539627549.977,-6.348,33.691,30.762,25.879,19.043,1
1539627549.981,13.672,29.785,33.691,24.414,4.883,0
1539627549.985,5.371,31.738,34.180,26.855,19.043,0
1539627549.989,-7.812,38.574,38.574,27.832,36.621,0
1539627549.992,4.395,39.551,34.668,29.785,3.906,0
1539627549.996,18.066,39.062,32.227,26.367,-26.855,0
1539627550.000,20.020,37.109,33.203,32.715,-15.137,0
1539627550.004,28.320,37.109,32.715,37.598,29.785,0
1539627550.008,22.949,37.598,37.598,26.855,38.574,0
1539627550.012,-4.395,32.227,38.086,43.945,20.508,0
1539627550.016,0.977,33.691,42.480,49.805,26.855,0
1539627550.020,28.320,37.109,35.156,28.320,16.602,0
1539627550.024,22.461,36.133,28.809,33.203,13.672,0
1539627550.028,8.789,40.039,32.227,29.297,40.527,0
1539627550.032,21.484,36.133,31.738,34.180,44.922,0
1539627550.035,28.809,31.738,32.715,34.180,39.551,0
1539627550.039,13.184,35.645,33.203,11.230,84.961,0
1539627550.043,3.906,35.156,35.156,26.855,67.871,0
1539627550.047,6.836,35.645,34.180,44.922,12.695,0
1539627550.051,3.418,36.621,30.762,22.949,17.090,0
1539627550.055,-5.371,35.645,28.320,16.113,31.738,0
1539627550.059,8.789,40.527,22.461,28.809,-0.977,0
1539627550.063,17.578,37.598,26.855,28.809,-11.719,0
1539627550.067,6.836,31.250,30.762,26.367,26.367,0
1539627550.071,1.953,32.227,28.809,20.508,59.082,0
1539627550.074,5.371,32.715,32.227,15.137,39.062,0
1539627550.078,4.883,31.250,34.180,16.113,99.121,0
1539627550.082,16.602,33.691,35.645,13.672,57.129,0
1539627550.086,27.344,36.133,36.621,14.160,27.344,0
1539627550.090,14.160,35.645,35.156,22.949,48.828,0
1539627550.094,16.602,34.668,34.180,35.156,7.812,0
1539627550.098,9.766,35.156,33.203,43.457,-7.812,0
1539627550.102,2.930,35.645,34.668,21.973,20.020,0
1539627550.106,22.461,35.156,34.668,12.207,36.133,0
1539627550.110,26.855,35.156,35.645,20.020,37.109,0
1539627550.114,32.715,39.062,34.180,22.949,39.062,0
1539627550.117,24.414,38.086,35.156,26.855,37.109,0
1539627550.121,4.883,35.645,41.504,38.086,41.504,0
1539627550.125,-10.742,34.668,43.945,22.949,41.016,0
1539627550.129,-16.602,34.180,41.016,-4.883,54.199,0
1539627550.133,4.395,32.715,39.062,16.113,29.785,0
1539627550.137,10.742,33.203,35.645,24.902,-69.824,0
1539627550.141,0.000,34.668,34.668,30.762,-27.344,0
1539627550.145,-2.441,32.715,34.668,28.320,89.355,0
1539627550.149,14.648,31.738,34.668,12.695,64.453,0
1539627550.153,14.160,31.250,32.227,25.879,69.336,0
1539627550.157,11.230,29.297,33.691,32.715,103.027,0
1539627550.160,27.832,28.809,35.645,25.391,48.828,0
1539627550.164,25.879,33.691,32.227,33.203,96.191,0
1539627550.168,10.742,38.086,34.180,45.898,94.727,0
1539627550.172,12.207,38.574,37.598,45.410,37.109,0
1539627550.176,25.879,41.504,34.668,30.273,20.020,0
1539627550.180,34.668,40.527,32.227,35.645,19.531,0
1539627550.184,23.438,37.598,34.668,52.246,56.641,0
1539627550.188,20.020,36.621,31.738,16.113,42.480,0
1539627550.192,4.395,37.109,32.715,-1.953,78.125,0
1539627550.196,3.418,39.062,42.480,27.344,59.082,0
1539627550.199,19.531,39.062,35.156,29.785,19.531,0
1539627550.203,0.488,36.621,30.762,31.738,46.875,0
1539627550.207,-2.441,33.203,36.133,35.156,62.012,0
1539627550.211,10.742,33.203,34.180,33.691,41.992,0
1539627550.215,0.488,31.250,32.227,15.137,-3.418,0
1539627550.219,8.301,29.785,31.738,0.488,-14.648,0
1539627550.223,22.461,33.203,34.180,17.090,6.836,0
1539627550.227,7.812,34.668,35.156,9.277,-17.090,0
1539627550.231,2.930,38.574,28.320,18.555,-25.391,0
1539627550.235,0.977,38.086,32.715,34.180,-13.184,0
1539627550.239,-1.465,34.180,36.133,18.066,13.672,0
1539627550.242,-9.277,36.133,29.785,27.344,62.012,0
1539627550.246,-3.906,34.668,32.715,39.062,47.363,0
1539627550.250,23.926,36.133,35.156,34.668,27.832,0
1539627550.254,21.484,37.598,30.762,14.160,32.715,0
1539627550.258,6.836,31.738,28.809,23.926,20.996,0
1539627550.262,4.395,33.203,34.180,43.457,49.805,0
1539627550.266,3.418,36.133,33.203,20.508,46.387,0
1539627550.270,12.695,39.551,31.250,27.832,79.102,0
1539627550.274,18.555,38.574,32.715,27.832,92.773,0
1539627550.278,18.066,30.273,30.273,19.043,44.922,0
1539627550.282,15.137,33.203,34.180,25.391,40.527,0
1539627550.285,-0.977,38.574,35.645,38.574,53.223,0
1539627550.289,-2.930,35.645,34.180,45.898,72.754,0
1539627550.293,15.137,36.133,35.156,19.531,35.645,0
1539627550.297,13.184,35.645,37.598,16.602,24.902,0
1539627550.301,20.508,31.738,31.250,28.809,52.734,0
1539627550.305,29.297,29.785,23.926,33.691,-7.812,0
1539627550.309,14.648,29.297,25.879,23.438,41.016,0
1539627550.313,14.648,28.320,32.715,25.879,152.344,0
1539627550.317,25.879,31.250,37.598,42.480,64.941,0
1539627550.321,25.879,32.227,35.645,37.598,-9.766,0
1539627550.324,10.742,34.180,33.691,36.133,75.195,0
1539627550.328,6.348,38.086,31.250,22.949,76.172,0
1539627550.332,5.371,36.621,29.297,13.672,25.879,0
1539627550.336,0.977,35.156,30.273,21.484,19.531,0
1539627550.340,-4.883,34.180,39.062,23.438,10.742,0
1539627550.344,-3.906,34.180,37.109,19.531,41.016,0
1539627550.348,7.812,34.180,27.832,18.066,32.227,0
1539627550.352,5.859,39.062,27.344,17.578,35.645,0
1539627550.356,19.531,41.992,29.297,39.551,47.852,0
1539627550.360,14.648,41.016,30.273,33.691,41.016,0
1539627550.364,2.441,41.504,30.273,14.160,54.688,0
1539627550.367,11.230,41.992,26.367,24.902,29.297,0
1539627550.371,10.254,40.039,28.320,25.391,-15.625,0
1539627550.375,11.719,39.062,24.902,10.742,27.832,0
1539627550.379,7.324,41.992,20.508,18.555,15.625,0
1539627550.383,-0.977,42.480,21.484,4.883,-1.465,0
1539627550.387,-14.160,41.016,26.855,-0.488,37.598,0
1539627550.391,-2.930,43.457,27.832,10.254,41.016,0
1539627550.395,0.000,42.480,22.461,-7.812,1.465,0
1539627550.399,-20.508,37.598,24.902,-1.953,8.301,0
1539627550.403,-24.414,37.109,28.320,5.859,59.082,0
1539627550.407,-21.973,39.062,26.855,6.348,72.754,0
1539627550.410,-17.090,41.016,26.855,17.578,52.734,0
1539627550.414,-9.766,42.480,28.320,18.066,92.285,0
1539627550.418,1.953,45.410,27.832,16.602,75.195,0
1539627550.422,19.043,46.875,25.391,16.602,44.434,0
1539627550.426,17.090,45.898,26.855,14.648,7.324,0
1539627550.430,5.371,38.574,30.273,13.672,-23.438,0
1539627550.434,5.859,33.691,30.273,12.695,34.668,0
1539627550.438,1.953,34.668,25.391,22.949,56.641,0
1539627550.442,-4.395,30.273,28.320,15.625,72.754,0
1539627550.446,3.906,28.320,42.480,12.695,48.340,0
1539627550.449,8.301,31.738,41.992,19.043,0.977,0
1539627550.453,5.371,31.250,37.109,9.277,2.441,0
1539627550.457,-12.695,29.297,40.527,-8.789,-11.719,0
1539627550.461,-9.766,30.762,38.086,-2.441,27.832,0
1539627550.465,-5.859,27.832,35.645,9.277,74.707,0
1539627550.469,-14.648,27.344,39.062,23.926,46.387,0
1539627550.473,11.230,29.785,41.504,42.480,20.996,0
1539627550.477,4.395,29.785,41.016,26.367,-30.273,0
1539627550.481,-8.789,26.855,41.992,23.438,-3.418,0
1539627550.485,6.348,25.391,42.480,33.203,72.754,0
1539627550.489,5.371,25.391,39.062,23.926,44.434,0
1539627550.492,13.672,26.855,29.785,21.484,-29.297,0
1539627550.496,18.066,30.273,28.809,27.344,58.105,0
1539627550.500,7.324,28.809,33.203,28.320,94.238,0
1539627550.504,11.230,27.832,32.715,34.668,44.922,0
1539627550.508,7.324,28.809,31.738,33.691,57.617,0
1539627550.512,0.000,26.367,29.297,15.137,44.922,0
1539627550.516,5.371,24.902,30.273,18.066,17.090,0
1539627550.520,11.230,30.273,32.227,26.855,32.715,0
1539627550.524,19.531,35.156,31.738,21.973,38.086,0
1539627550.528,31.250,35.645,33.203,19.043,38.574,0
1539627550.532,30.273,36.621,36.621,23.926,56.152,0
1539627550.535,1.953,35.156,38.086,35.156,68.848,0
1539627550.539,1.465,27.832,39.062,36.621,99.609,0
1539627550.543,-9.766,24.414,39.551,21.973,65.918,0
1539627550.547,-5.859,27.344,38.574,12.207,20.508,0
1539627550.551,20.020,25.879,36.621,17.090,27.344,0
1539627550.555,9.277,22.949,36.133,1.465,-11.230,0
1539627550.559,-6.348,23.438,41.992,8.789,5.371,0
1539627550.563,-5.859,26.367,39.551,29.297,15.137,0
1539627550.567,20.020,32.227,32.715,24.414,-11.230,0
1539627550.571,16.113,32.715,34.668,27.832,-13.184,0
1539627550.574,-0.977,34.180,39.062,33.691,-38.574,0
1539627550.578,0.977,37.109,39.551,27.832,-4.883,0
1539627550.582,18.066,40.527,36.621,25.879,2.441,0
1539627550.586,30.762,44.434,44.922,41.016,-24.902,0
1539627550.590,29.785,43.457,42.480,36.133,-27.832,0
1539627550.594,16.113,44.922,40.039,35.645,-38.086,0
1539627550.598,5.859,45.898,45.898,48.828,3.906,0
1539627550.602,-2.441,40.527,33.691,12.207,58.594,0
1539627550.606,-15.137,37.109,25.879,-11.230,81.055,0
1539627550.610,-23.438,36.133,31.738,7.812,63.965,0
1539627550.614,-20.508,38.086,32.227,6.836,23.926,0
1539627550.617,-16.602,46.387,28.320,10.254,1.465,0
1539627550.621,-23.438,50.293,26.855,-3.418,-22.461,0
1539627550.625,-16.602,54.688,31.250,-6.836,70.801,0
1539627550.629,-18.066,55.176,27.832,-7.324,100.098,0
1539627550.633,-26.367,60.059,26.367,-26.855,31.250,0
1539627550.637,-35.645,63.965,22.461,-39.551,20.508,0
1539627550.641,-45.898,56.641,10.254,-41.016,-0.977,0
1539627550.645,-36.621,60.059,18.066,-28.320,9.766,0
1539627550.649,-37.598,62.012,20.020,-24.414,56.641,0
1539627550.653,-55.176,59.570,16.602,-53.711,86.426,0
1539627550.657,-55.664,62.012,19.531,-59.082,55.664,0
1539627550.660,-62.988,62.988,21.973,-32.227,-8.789,0
1539627550.664,-69.824,62.988,16.602,-26.855,-32.227,0
1539627550.668,-61.523,64.453,15.625,-32.715,36.621,0
1539627550.672,-63.477,62.500,18.066,-33.691,96.191,0
1539627550.676,-63.477,57.617,22.461,-38.574,80.078,0
1539627550.680,-55.176,58.105,22.461,-35.156,90.332,0
1539627550.684,-38.574,56.641,19.043,-31.738,54.199,0
1539627550.688,-13.184,53.223,21.484,-25.879,-26.855,0
1539627550.692,-6.836,49.316,22.949,-22.949,27.832,0
1539627550.696,-18.066,48.340,20.996,-22.461,26.367,0
1539627550.699,-6.836,42.969,22.949,-6.348,-22.949,0
1539627550.703,11.230,39.062,20.508,5.859,30.762,0
1539627550.707,19.043,41.504,24.902,13.672,17.578,0
1539627550.711,32.227,38.086,29.785,26.367,-20.508,0
1539627550.715,37.109,32.227,29.297,24.414,-25.391,0
1539627550.719,16.113,27.832,35.156,23.926,12.207,0
1539627550.723,9.766,27.832,36.621,36.621,21.484,0
1539627550.727,10.742,25.391,37.109,44.922,12.695,0
1539627550.731,6.348,23.926,38.574,42.480,-6.836,0
1539627550.735,16.113,23.438,38.574,46.875,14.160,0
1539627550.739,22.461,20.996,40.039,48.340,50.781,0
1539627550.742,25.391,21.484,43.945,52.734,17.578,0
1539627550.746,26.855,19.531,44.434,47.852,35.645,0
1539627550.750,45.898,17.090,42.480,39.062,69.824,0
1539627550.754,60.547,14.160,41.992,62.988,49.805,0
1539627550.758,55.664,15.137,40.527,63.965,59.570,0
1539627550.762,48.828,20.996,40.527,61.035,112.305,0
1539627550.766,37.598,21.484,43.945,67.383,55.664,0
1539627550.770,24.414,20.508,43.457,62.500,20.020,0
1539627550.774,35.156,19.531,42.969,68.359,79.590,0
1539627550.778,58.105,22.461,41.016,71.289,60.059,0
1539627550.782,48.828,24.902,41.504,56.152,7.812,0
1539627550.785,29.297,20.020,41.016,41.992,76.660,0
1539627550.789,24.902,20.508,37.598,41.992,83.496,0
1539627550.793,28.320,22.949,37.598,47.363,9.277,0
1539627550.797,38.086,22.949,40.527,64.941,6.836,0
1539627550.801,41.504,24.902,43.945,56.641,-10.742,0
1539627550.805,42.480,23.438,41.992,59.082,-9.277,0
1539627550.809,33.203,22.461,44.434,57.617,16.602,0
1539627550.813,36.621,23.926,44.922,62.988,41.504,0
1539627550.817,43.945,21.973,43.457,64.453,75.195,0
1539627550.821,46.387,20.020,45.410,46.387,59.570,0
1539627550.824,42.969,23.926,43.457,47.852,14.648,0
1539627550.828,47.852,25.391,41.504,59.082,10.254,0
1539627550.832,37.598,23.438,42.969,68.359,7.812,0
1539627550.836,23.438,24.414,43.945,69.824,3.906,0
1539627550.840,44.434,23.926,44.922,64.941,86.426,0
1539627550.844,39.062,22.461,44.922,58.105,8.789,0
1539627550.848,26.855,25.391,42.969,44.434,8.789,0
1539627550.852,23.926,25.391,39.551,39.062,75.195,0
1539627550.856,34.180,25.391,36.621,48.340,57.617,0
1539627550.860,35.645,27.344,37.109,55.176,104.980,0
1539627550.864,28.809,29.297,36.621,64.453,52.734,0
1539627550.867,52.734,27.832,41.504,41.016,39.551,0
1539627550.871,53.711,29.297,39.062,36.133,71.289,0
1539627550.875,36.621,31.738,39.062,61.523,61.523,0
1539627550.879,37.598,32.715,39.062,56.152,60.059,0
1539627550.883,41.992,33.691,35.645,47.852,37.598,0
1539627550.887,29.297,31.250,37.109,45.410,5.371,0
1539627550.891,12.207,29.297,39.062,43.945,55.176,0
1539627550.895,14.648,29.785,37.109,52.734,29.297,0
1539627550.899,26.367,33.203,33.691,46.387,-56.152,0
1539627550.903,30.273,33.691,38.086,34.668,3.906,0
1539627550.907,21.973,33.203,42.480,32.227,90.332,0
1539627550.910,9.277,32.227,41.504,38.574,64.941,0
1539627550.914,20.020,33.691,32.227,45.898,42.480,0
1539627550.918,17.578,38.086,26.367,25.391,47.852,0
1539627550.922,21.973,33.203,30.762,20.508,13.672,0
1539627550.926,40.527,24.902,39.551,48.828,72.754,0
1539627550.930,32.715,32.715,40.527,52.734,71.289,0
1539627550.934,16.602,39.551,31.738,27.344,13.672,0
1539627550.938,15.137,33.691,32.227,24.414,20.996,0
1539627550.942,27.344,32.227,36.621,36.621,22.461,0
1539627550.946,26.367,36.621,33.691,36.133,52.246,0
1539627550.949,17.578,34.668,33.203,30.273,48.340,0
1539627550.953,23.438,32.715,36.621,34.180,1.953,0
1539627550.957,35.156,30.762,37.109,45.898,-25.391,0
1539627550.961,39.062,28.809,36.621,40.039,4.395,0
1539627550.965,28.809,30.762,33.203,36.621,15.625,0
1539627550.969,9.766,28.809,29.785,32.715,53.223,0
1539627550.973,12.695,28.809,31.250,32.227,47.363,0
1539627550.977,12.695,29.297,35.156,35.156,6.348,0
1539627550.981,7.324,28.809,35.645,25.391,29.785,0
1539627550.985,18.066,30.762,35.156,24.902,11.719,0
1539627550.989,12.207,27.832,34.180,41.504,27.344,0
1539627550.992,14.160,28.320,34.180,21.484,3.906,0
1539627550.996,19.043,34.180,33.203,7.812,6.836,0
1539627551.000,19.043,32.715,27.832,41.016,37.598,0
1539627551.004,22.949,33.203,29.297,37.598,39.551,0
1539627551.008,15.625,35.645,31.738,25.391,2.930,0
1539627551.012,4.883,36.133,30.273,23.438,3.906,0
1539627551.016,10.742,34.668,31.250,30.762,73.242,0
1539627551.020,15.137,28.320,39.062,39.062,52.734,0
1539627551.024,14.160,28.809,38.086,38.574,33.203,0
1539627551.028,18.066,33.691,31.738,39.062,24.414,0
1539627551.032,28.809,32.715,36.621,34.180,28.320,0
1539627551.035,20.996,31.250,36.133,33.691,34.180,0
1539627551.039,5.859,33.691,34.180,39.062,-17.578,0
1539627551.043,12.207,34.668,35.156,41.016,22.461,0
1539627551.047,1.953,26.367,36.133,11.230,64.941,0
1539627551.051,8.789,24.902,37.598,15.137,29.785,0
1539627551.055,22.461,28.809,38.574,42.480,18.066,0
1539627551.059,13.184,26.855,30.273,47.852,50.293,0
1539627551.063,20.020,34.668,21.484,47.363,14.648,0
1539627551.067,24.414,35.156,27.832,39.062,-1.953,0
1539627551.071,13.672,28.809,34.668,23.438,3.418,0
1539627551.074,4.883,31.250,35.645,25.391,41.504,0
1539627551.078,6.348,32.227,34.180,47.363,77.148,0
1539627551.082,3.906,31.738,35.156,31.250,76.660,0
1539627551.086,-7.812,33.691,34.180,26.367,75.684,0
1539627551.090,4.395,31.738,28.320,33.203,62.500,0
1539627551.094,17.578,27.832,29.297,19.043,13.184,0
1539627551.098,11.230,32.227,35.156,22.461,27.832,0
1539627551.102,6.348,35.156,35.156,21.484,17.090,0
1539627551.106,5.859,34.180,32.715,20.996,-9.766,0
1539627551.110,3.418,31.738,34.180,23.926,41.016,0
1539627551.114,17.578,33.203,31.250,28.320,53.223,0
1539627551.117,21.973,32.715,30.273,32.227,68.848,0
1539627551.121,13.672,32.227,32.227,28.809,43.457,0
1539627551.125,19.531,35.645,33.203,29.297,-23.926,0
1539627551.129,35.156,37.598,28.320,36.133,-27.344,0
1539627551.133,41.016,36.621,24.414,43.945,5.371,0
1539627551.137,20.020,35.156,34.668,39.062,34.668,0
1539627551.141,7.324,32.227,41.016,32.227,53.711,0
1539627551.145,2.441,28.809,35.156,13.184,2.441,0
1539627551.149,2.930,28.809,31.250,9.766,-10.254,0
1539627551.153,10.742,28.809,36.133,28.320,-38.574,0
1539627551.157,-1.465,28.809,38.086,36.621,8.789,0
1539627551.160,-9.766,30.762,35.645,28.320,99.121,0
1539627551.164,-3.906,32.227,34.180,20.996,86.426,0
1539627551.168,0.000,34.180,36.621,36.621,59.570,0
1539627551.172,18.555,34.180,39.062,27.832,20.508,0
1539627551.176,0.488,33.203,36.133,21.484,16.602,0
1539627551.180,-9.277,33.203,33.691,34.180,8.301,0
1539627551.184,6.348,32.227,33.203,22.949,0.488,0
1539627551.188,21.484,34.180,32.227,29.785,40.527,0
1539627551.192,39.551,35.156,33.203,52.246,33.203,0
1539627551.196,24.414,33.691,34.668,33.203,2.441,0
1539627551.199,10.254,38.086,37.598,16.602,31.738,0
1539627551.203,10.254,40.039,43.457,32.227,-23.926,0
1539627551.207,2.930,39.062,36.621,39.551,-21.484,0
1539627551.211,6.348,33.691,32.715,36.133,49.805,0
1539627551.215,7.812,31.250,36.133,36.621,-7.812,0
1539627551.219,16.602,34.668,30.762,24.414,-41.016,0
1539627551.223,26.367,37.109,31.738,2.441,-7.812,0
1539627551.227,22.461,36.621,32.715,15.625,55.176,0
1539627551.231,10.254,34.180,31.738,33.203,38.574,0
1539627551.235,11.719,34.180,34.668,28.809,24.902,0
1539627551.239,19.531,35.645,35.645,20.508,19.531,0
1539627551.242,18.555,36.133,33.691,23.926,-38.086,0
1539627551.246,4.395,35.645,36.621,37.109,-39.551,0
1539627551.250,-11.719,33.691,41.504,31.738,-0.977,0
1539627551.254,-4.395,32.227,38.086,26.855,40.527,0
1539627551.258,14.160,37.598,36.621,42.480,24.902,0
1539627551.262,20.020,40.527,41.016,45.898,-19.531,0
1539627551.266,7.812,37.109,35.645,21.973,43.457,0
1539627551.270,13.184,34.668,29.297,17.578,36.621,0
1539627551.274,28.320,33.203,31.250,27.344,45.898,0
1539627551.278,24.902,33.691,34.668,37.598,93.750,0
1539627551.282,9.766,34.668,31.250,43.457,85.938,0
1539627551.285,7.324,38.574,31.738,39.551,46.387,0
1539627551.289,2.441,34.180,41.016,30.273,41.992,0
1539627551.293,-3.906,33.691,41.504,39.551,109.375,0
1539627551.297,1.465,37.109,36.133,33.691,85.938,0
1539627551.301,6.836,34.180,33.203,8.789,5.859,0
1539627551.305,17.090,31.250,32.227,31.738,3.906,0
1539627551.309,33.203,29.297,34.180,39.062,8.301,0
1539627551.313,31.738,32.715,32.227,23.926,69.824,0
1539627551.317,30.762,41.504,26.855,33.203,89.355,0
1539627551.321,12.207,46.387,22.949,27.832,-20.508,0
1539627551.324,-4.395,41.504,23.438,7.812,-7.812,1
1539627551.328,-3.418,37.598,28.320,20.020,61.035,0
1539627551.332,6.348,39.062,27.832,28.320,60.059,0
1539627551.336,19.043,41.016,25.879,12.695,31.250,0
1539627551.340,6.348,38.574,24.414,9.277,17.090,0
1539627551.344,2.930,36.621,25.391,17.090,79.590,0
1539627551.348,14.160,38.086,27.344,36.621,20.020,0
1539627551.352,5.371,38.574,29.785,39.062,14.160,0
1539627551.356,13.672,36.621,32.227,30.762,12.695,0
1539627551.360,21.973,35.645,30.273,28.809,-16.113,0
1539627551.364,7.324,37.109,31.250,20.020,83.984,0
1539627551.367,5.371,34.668,30.762,26.367,131.348,0
1539627551.371,18.555,36.621,27.344,34.180,66.406,0
1539627551.375,21.484,42.969,31.250,15.625,23.438,0
1539627551.379,33.691,43.945,31.250,23.438,23.438,0
1539627551.383,37.598,42.969,31.250,41.016,20.020,0
1539627551.387,18.555,39.062,36.133,36.621,95.703,0
1539627551.391,14.160,39.551,33.691,26.367,64.941,0
1539627551.395,7.812,41.016,28.809,18.555,1.465,0
1539627551.399,-2.441,38.086,28.809,23.438,32.715,0
1539627551.403,11.719,34.668,29.297,28.320,44.922,0
1539627551.407,23.926,36.621,32.227,29.297,39.062,0
1539627551.410,30.273,40.527,34.668,34.180,14.648,0
1539627551.414,23.926,36.621,35.645,21.484,35.156,0
1539627551.418,8.301,34.668,37.598,11.230,28.320,0
1539627551.422,-3.906,40.527,31.738,24.902,7.324,0
1539627551.426,7.812,44.434,26.855,29.297,39.062,0
1539627551.430,3.418,41.504,27.832,32.715,34.668,0
1539627551.434,4.883,40.039,28.809,25.391,44.434,0
1539627551.438,26.855,41.016,30.762,17.090,62.500,0
1539627551.442,23.438,36.621,33.203,18.066,79.590,0
1539627551.446,20.996,36.621,29.785,15.625,47.363,0
1539627551.449,9.766,39.551,27.344,18.555,38.574,0
1539627551.453,0.488,38.574,26.855,20.996,33.203,0
1539627551.457,0.000,35.156,25.391,21.973,41.504,0
1539627551.461,-3.906,36.133,26.855,8.301,35.156,0
1539627551.465,-7.812,37.109,32.715,11.230,-16.602,0
1539627551.469,-2.441,33.203,30.273,17.578,-17.578,0
1539627551.473,11.719,33.691,25.879,24.414,57.617,0
1539627551.477,21.973,33.691,28.320,22.949,20.508,0
1539627551.481,7.324,32.227,30.273,12.207,17.578,0
1539627551.485,5.859,34.180,34.668,35.645,44.922,0
1539627551.489,18.555,33.203,38.574,25.391,25.391,0
1539627551.492,8.301,33.691,37.109,8.301,39.062,0
1539627551.496,5.859,34.180,37.598,24.414,24.902,0
1539627551.500,12.207,34.180,34.668,26.855,41.504,0
1539627551.504,6.836,33.203,29.785,27.832,67.871,0
1539627551.508,7.324,34.180,29.297,28.320,62.500,0
1539627551.512,20.020,37.598,32.227,43.945,28.320,0
1539627551.516,27.832,37.109,36.133,42.969,20.996,0
1539627551.520,22.949,35.645,34.180,23.438,20.508,0
1539627551.524,-3.906,34.668,32.715,28.320,45.410,0
1539627551.528,-3.906,33.203,35.156,44.922,31.250,0
1539627551.532,15.137,31.738,38.574,44.922,35.645,0
1539627551.535,15.625,35.156,37.598,11.719,65.918,0
1539627551.539,19.043,36.621,37.109,19.531,-4.395,0
1539627551.543,15.137,34.668,32.227,27.344,39.062,0
1539627551.547,13.672,33.691,30.273,13.672,47.852,0
1539627551.551,19.531,30.762,33.203,21.484,31.738,0
1539627551.555,20.020,32.227,30.762,22.949,22.461,0
1539627551.559,24.902,35.645,29.297,10.254,-30.762,0
1539627551.563,23.926,39.551,31.250,2.441,-5.859,0
1539627551.567,8.301,38.086,31.738,-9.277,42.480,0
1539627551.571,0.977,34.180,29.785,-18.066,58.105,0
1539627551.574,9.766,34.180,30.273,4.883,30.273,0
1539627551.578,12.695,29.785,35.645,31.250,24.902,0
1539627551.582,6.348,29.785,43.457,27.344,53.711,0
1539627551.586,-19.531,29.785,42.480,17.090,73.242,0
1539627551.590,-18.066,31.250,35.645,22.461,78.125,0
1539627551.594,14.648,34.668,37.598,38.574,73.242,0
1539627551.598,15.625,35.156,38.574,39.551,60.547,0
1539627551.602,11.230,34.180,37.598,24.414,72.266,0
1539627551.606,10.254,34.180,34.668,34.180,7.812,0
1539627551.610,9.277,36.621,32.227,35.156,-69.336,0
1539627551.614,11.230,37.109,32.227,35.645,-37.598,0
1539627551.617,22.461,37.598,35.156,41.016,26.855,0
1539627551.621,20.996,39.551,39.551,36.621,44.434,0
1539627551.625,-2.930,36.133,38.574,41.016,2.930,0
1539627551.629,-7.324,33.691,40.039,28.320,-44.922,0
1539627551.633,6.348,34.668,41.992,14.160,0.000,0
1539627551.637,16.113,37.109,41.504,35.156,58.594,0
1539627551.641,14.648,34.668,37.109,43.457,71.289,0
1539627551.645,19.043,35.645,34.668,40.527,27.344,0
1539627551.649,29.785,37.109,34.668,38.574,30.273,0
1539627551.653,16.602,32.227,35.645,35.645,33.691,0
1539627551.657,-1.953,35.156,35.645,20.508,29.297,0
1539627551.660,-2.930,41.504,31.250,27.832,41.504,0
1539627551.664,1.953,37.109,32.715,28.320,10.742,0
1539627551.668,9.766,33.691,35.156,27.344,-5.371,0
1539627551.672,6.348,37.598,31.250,23.926,33.691,0
1539627551.676,18.066,37.109,31.738,-0.488,69.336,0
1539627551.680,29.297,37.109,37.598,10.742,68.848,0
1539627551.684,28.809,35.156,37.109,25.879,69.336,0
1539627551.688,18.066,40.039,39.062,27.344,35.645,0
1539627551.692,9.277,46.387,43.945,22.461,46.387,0
1539627551.696,4.395,38.086,39.551,21.484,47.852,0
1539627551.699,5.371,45.410,41.016,32.715,8.301,0
1539627551.703,14.160,50.293,41.992,32.227,26.367,0
1539627551.707,4.395,38.086,33.203,19.531,59.082,0
1539627551.711,-26.367,44.434,26.855,2.930,42.480,0
1539627551.715,-36.621,47.852,30.273,-5.859,-11.230,0
1539627551.719,-21.484,46.875,33.203,-12.695,-18.066,0
1539627551.723,-25.879,51.270,20.508,-29.297,-8.301,0
1539627551.727,-42.480,62.012,17.578,-30.273,-7.324,0
1539627551.731,-50.781,64.453,7.324,-41.016,50.293,0
1539627551.735,-58.594,54.199,-4.395,-46.875,67.871,0
1539627551.739,-78.613,59.570,8.301,-51.758,41.504,0
1539627551.742,-78.613,76.172,20.508,-81.055,21.973,0
1539627551.746,-78.125,79.102,20.996,-87.402,-48.340,0
1539627551.750,-109.863,70.801,11.230,-104.980,-63.965,0
1539627551.754,-120.117,77.148,10.254,-104.980,-20.996,0
1539627551.758,-120.605,81.055,11.719,-107.910,1.953,0
1539627551.762,-151.367,75.195,16.113,-129.883,-22.949,0
1539627551.766,-158.691,79.590,18.555,-134.277,-9.277,0
1539627551.770,-138.672,78.125,17.090,-130.371,42.969,0
1539627551.774,-145.020,69.824,3.906,-139.648,13.184,0
1539627551.778,-157.227,72.754,1.953,-138.672,0.977,0
1539627551.782,-147.949,68.359,15.625,-151.855,55.664,0
1539627551.785,-145.996,63.477,16.113,-141.113,48.340,0
1539627551.789,-142.090,66.406,14.160,-121.094,41.504,0
1539627551.793,-137.695,70.312,17.090,-125.488,25.879,0
1539627551.797,-141.113,68.848,20.020,-111.328,-11.719,0
1539627551.801,-133.789,61.523,22.461,-116.699,18.066,0
1539627551.805,-118.652,57.617,23.438,-116.211,68.359,0
1539627551.809,-115.234,53.711,24.414,-102.539,49.805,0
1539627551.813,-115.234,49.805,27.344,-94.238,-5.859,0
1539627551.817,-125.000,44.434,32.715,-94.238,16.602,0
1539627551.821,-110.352,41.016,35.645,-72.266,51.270,0
1539627551.824,-93.750,41.016,33.203,-73.242,53.711,0
1539627551.828,-97.656,38.574,33.691,-78.125,40.527,0
1539627551.832,-67.383,34.180,33.691,-53.711,53.223,0
1539627551.836,-43.457,33.203,32.227,-28.320,41.504,0
1539627551.840,-47.852,35.645,32.715,-26.855,9.766,0
1539627551.844,-42.480,32.227,32.715,-20.508,18.555,0
1539627551.848,-26.367,25.391,26.855,-8.789,39.062,0
1539627551.852,-22.949,20.020,27.832,8.789,12.207,0
1539627551.856,-23.438,17.090,29.785,19.043,15.137,0
1539627551.860,-19.043,14.648,30.762,3.906,33.691,0
1539627551.864,5.371,18.555,31.738,21.973,-15.137,0
1539627551.867,25.879,16.602,32.715,33.203,50.293,0
1539627551.871,16.602,16.113,31.738,32.227,78.613,0
1539627551.875,12.695,15.625,33.203,40.039,55.176,0
1539627551.879,22.949,12.695,35.645,59.082,55.664,0
1539627551.883,41.016,13.184,35.645,65.918,0.977,0
1539627551.887,44.922,12.207,39.551,74.707,-19.531,0
1539627551.891,46.875,14.648,40.039,79.102,9.766,0
1539627551.895,59.570,13.672,34.668,82.520,67.383,0
1539627551.899,77.637,11.230,35.645,98.633,37.109,0
1539627551.903,89.844,13.672,46.875,95.703,-5.859,0
1539627551.907,74.219,15.137,49.316,86.914,33.691,0
1539627551.910,79.590,17.090,41.504,97.656,57.129,0
1539627551.914,86.426,16.602,40.527,93.262,32.715,0
1539627551.918,98.633,15.625,41.016,84.473,27.344,0
1539627551.922,89.844,17.090,39.062,98.633,49.316,0
1539627551.926,62.988,17.090,40.039,116.699,97.656,0
1539627551.930,51.270,16.602,48.828,113.281,54.199,0
1539627551.934,47.852,18.555,52.246,99.609,31.250,0
1539627551.938,75.195,19.531,48.828,107.422,34.668,0
1539627551.942,89.355,18.066,46.875,108.887,-0.488,0
1539627551.946,83.008,20.020,48.340,95.215,5.859,0
1539627551.949,91.797,19.531,49.316,106.934,4.395,0
1539627551.953,90.820,17.578,43.945,120.117,41.992,0
1539627551.957,78.125,17.090,43.457,76.660,114.746,0
1539627551.961,80.566,16.602,46.875,78.125,83.984,0
1539627551.965,84.473,16.602,46.875,108.887,65.918,0
1539627551.969,79.590,17.090,47.852,104.980,69.336,0
1539627551.973,81.055,13.672,50.293,102.539,47.852,0
1539627551.977,80.078,14.160,51.270,100.098,55.664,0
1539627551.981,88.867,20.020,48.340,101.074,31.738,0
1539627551.985,89.355,22.949,46.387,106.934,45.410,0
1539627551.989,82.520,24.902,44.922,111.328,74.707,0
1539627551.992,83.008,24.414,42.969,115.234,56.641,0
1539627551.996,78.125,22.949,45.898,95.703,30.762,0
1539627552.000,58.594,24.902,43.457,95.215,15.625,0
1539627552.004,54.688,25.879,42.480,87.402,14.160,0
1539627552.008,65.918,23.926,47.852,64.941,23.438,0
1539627552.012,58.594,24.414,46.387,77.637,-8.789,0
1539627552.016,79.590,28.809,37.109,90.820,-24.902,0
1539627552.020,92.285,27.344,37.109,91.797,75.195,0
1539627552.024,82.031,24.902,41.504,80.566,82.031,0
1539627552.028,69.824,26.367,41.992,83.984,58.594,0
1539627552.032,57.129,25.391,43.945,84.961,130.371,0
1539627552.035,59.082,23.926,47.363,73.730,52.246,0
1539627552.039,71.289,26.855,38.086,79.102,22.949,0
1539627552.043,91.309,31.738,31.250,76.660,112.305,0
1539627552.047,77.148,32.227,36.621,68.848,74.219,0
1539627552.051,47.363,30.762,41.504,68.848,-15.625,0
1539627552.055,39.062,30.273,39.551,71.777,-25.879,0
1539627552.059,39.551,28.320,33.203,70.312,6.348,0
1539627552.063,39.062,25.879,37.109,61.035,6.836,0
1539627552.067,39.062,26.367,45.410,60.059,21.973,0
1539627552.071,31.738,25.879,43.945,52.734,19.043,0
1539627552.074,34.180,25.879,36.621,44.434,69.824,0
1539627552.078,45.410,28.809,35.645,51.270,92.773,0
1539627552.082,42.969,27.344,36.621,76.660,5.859,0
1539627552.086,52.246,30.762,39.551,66.895,50.781,0
1539627552.090,51.270,38.086,40.039,34.668,43.457,0
1539627552.094,30.762,36.621,35.156,49.316,-9.277,0
1539627552.098,45.898,32.715,35.645,55.664,-3.418,0
1539627552.102,56.152,30.762,42.969,60.059,38.574,0
1539627552.106,42.969,31.250,42.969,56.152,67.383,0
1539627552.110,37.109,31.250,36.133,52.246,41.992,0
1539627552.114,41.992,33.691,35.156,60.059,22.949,0
1539627552.117,46.875,34.180,36.133,61.035,-0.488,0
1539627552.121,34.668,34.668,39.551,60.059,-30.762,0
1539627552.125,30.273,39.062,43.945,45.410,-1.465,0
1539627552.129,35.156,37.109,40.039,31.738,39.551,0
1539627552.133,28.809,33.691,39.062,33.203,19.043,0
1539627552.137,16.602,32.715,39.551,41.992,-10.742,0
1539627552.141,10.254,31.250,36.133,49.316,27.832,0
1539627552.145,14.160,30.762,35.645,49.316,45.898,0
1539627552.149,27.344,32.715,32.715,50.781,12.207,0
1539627552.153,34.668,35.156,32.227,47.363,20.508,0
1539627552.157,35.645,34.180,35.156,42.480,61.035,0
1539627552.160,29.297,34.668,36.621,49.805,32.227,0
1539627552.164,28.320,39.551,35.645,34.668,0.000,0
1539627552.168,25.391,39.551,37.598,21.484,43.457,0
1539627552.172,6.836,35.645,39.551,38.086,38.574,0
1539627552.176,24.414,32.227,33.691,51.758,3.418,0
1539627552.180,40.039,32.227,27.832,40.039,13.672,0
1539627552.184,25.879,32.715,30.273,24.902,36.621,0
1539627552.188,21.973,29.785,34.180,35.156,16.113,0
1539627552.192,27.832,30.273,37.109,37.598,6.348,0
1539627552.196,27.832,28.809,38.574,30.762,19.043,0
1539627552.199,12.695,26.855,37.109,32.715,58.594,0
1539627552.203,11.230,26.367,41.016,39.551,67.383,0
1539627552.207,17.578,27.344,45.898,56.641,-9.277,0
1539627552.211,14.160,31.738,40.527,43.945,-17.090,0
1539627552.215,1.953,34.180,31.250,37.598,25.391,0
1539627552.219,-11.230,32.227,27.832,32.715,36.133,0
1539627552.223,10.742,30.273,31.250,15.137,61.523,0
1539627552.227,11.230,36.133,31.738,28.809,31.250,0
1539627552.231,7.324,40.527,30.273,35.645,36.133,0
1539627552.235,32.227,37.598,28.809,38.574,60.547,0
1539627552.239,38.574,38.086,30.273,33.203,36.621,0
1539627552.242,39.551,38.086,34.180,21.484,18.066,0
1539627552.246,28.320,37.109,32.715,20.996,41.504,0
1539627552.250,9.766,36.133,34.180,25.879,85.938,0
1539627552.254,6.348,34.668,32.715,22.949,38.574,0
1539627552.258,14.648,34.180,29.297,42.480,27.832,0
1539627552.262,18.066,36.621,33.203,40.039,75.684,0
1539627552.266,24.902,38.086,32.227,11.230,-6.348,0
1539627552.270,28.320,37.109,25.391,19.043,-0.977,0
1539627552.274,21.484,35.156,26.367,27.344,92.773,0
1539627552.278,15.625,34.668,32.715,33.691,114.258,0
1539627552.282,21.973,36.621,35.156,40.039,99.609,0
1539627552.285,11.230,39.062,28.320,39.551,57.617,0
1539627552.289,0.000,39.551,23.926,41.992,-1.953,0
1539627552.293,19.043,41.992,26.367,46.387,5.859,0
1539627552.297,26.367,42.969,28.320,33.691,26.367,0
1539627552.301,22.949,37.109,32.227,22.949,28.809,0
1539627552.305,20.020,36.133,32.227,31.738,28.809,0
1539627552.309,7.324,39.062,32.227,24.414,37.598,0
1539627552.313,8.301,38.574,33.203,15.625,14.648,0
1539627552.317,22.949,39.062,30.273,19.531,34.180,0
1539627552.321,15.625,38.086,30.273,18.555,26.855,0
1539627552.324,16.113,38.574,31.250,21.973,21.973,0
1539627552.328,19.043,38.574,33.203,31.250,42.969,0
1539627552.332,15.625,38.574,34.668,46.387,22.461,0
1539627552.336,20.508,39.551,34.180,38.574,57.617,0
1539627552.340,27.344,38.574,35.645,27.344,81.055,0
1539627552.344,27.832,35.645,36.621,30.762,34.180,0
1539627552.348,16.602,36.133,37.598,29.785,-8.301,0
1539627552.352,10.254,38.086,39.062,48.340,35.645,0
1539627552.356,6.836,36.133,40.527,35.645,98.633,0
1539627552.360,10.742,34.668,38.574,10.254,81.543,0
1539627552.364,18.066,37.598,29.785,19.043,64.453,0
1539627552.367,19.531,40.527,25.391,29.785,14.648,0
1539627552.371,15.625,41.016,28.809,28.809,-33.203,0
1539627552.375,20.996,42.480,34.180,23.926,-11.719,0
1539627552.379,23.926,42.480,32.227,22.461,-19.531,0
1539627552.383,16.113,39.551,35.156,20.508,-31.250,0
1539627552.387,12.207,36.133,38.574,25.879,-2.930,0
1539627552.391,0.977,34.668,36.621,27.344,67.871,0
1539627552.395,0.977,33.691,37.598,15.625,63.477,0
1539627552.399,0.977,31.738,39.551,11.719,10.742,0
1539627552.403,-0.977,34.180,37.598,20.996,0.488,0
1539627552.407,2.441,36.133,37.598,13.184,-49.316,0
1539627552.410,22.949,36.133,35.156,8.789,-3.906,0
1539627552.414,45.898,40.527,30.762,19.531,58.594,0
1539627552.418,28.809,42.969,29.785,13.672,22.949,0
1539627552.422,13.672,41.992,31.738,18.066,18.555,0
1539627552.426,14.648,41.992,36.621,22.949,24.902,0
1539627552.430,23.926,41.504,39.551,5.371,43.945,0
1539627552.434,23.926,38.086,38.574,11.719,65.430,0
1539627552.438,14.160,35.156,36.133,21.973,90.332,0
1539627552.442,14.648,33.203,32.715,28.320,67.383,0
1539627552.446,20.508,33.203,34.180,28.320,76.660,0
1539627552.449,14.648,34.668,33.691,26.855,80.566,0
1539627552.453,17.578,34.668,27.344,23.926,43.457,0
1539627552.457,18.555,34.668,26.855,27.344,25.391,0
1539627552.461,7.324,31.738,33.691,30.762,-30.762,0
1539627552.465,-0.488,29.297,39.062,19.043,36.133,0
1539627552.469,3.906,31.738,32.227,39.062,99.609,0
1539627552.473,15.137,34.668,29.297,51.270,90.332,0
1539627552.477,14.160,32.227,31.738,34.180,2.441,0
1539627552.481,0.488,32.227,33.203,27.832,-9.766,0
1539627552.485,14.648,33.691,31.250,25.879,37.598,0
1539627552.489,27.344,35.156,27.344,17.090,46.387,0
1539627552.492,6.836,36.621,27.832,19.043,27.344,0
1539627552.496,-8.301,35.156,28.809,20.996,-57.129,0
1539627552.500,-4.883,34.180,31.738,10.254,-27.832,0
1539627552.504,0.000,38.086,33.691,6.836,48.340,0
1539627552.508,-3.418,37.109,30.762,16.113,4.883,0
1539627552.512,4.395,33.203,29.785,25.879,-36.133,0
1539627552.516,7.812,29.785,31.250,24.414,-35.156,0
1539627552.520,9.766,26.855,33.203,29.785,-0.977,0
1539627552.524,22.949,28.809,34.180,29.785,19.043,0
1539627552.528,18.066,32.227,31.250,35.156,-6.348,0
1539627552.532,14.160,32.715,35.645,47.852,17.090,0
1539627552.535,13.672,34.668,39.551,37.598,43.457,0
1539627552.539,2.930,34.668,34.668,21.973,30.762,0
1539627552.543,-1.465,39.062,32.227,13.184,32.715,0
1539627552.547,14.160,42.969,35.156,29.297,30.762,0
1539627552.551,25.879,40.039,38.086,23.438,43.945,0
1539627552.555,22.461,38.086,35.156,15.625,22.461,0
1539627552.559,22.461,38.086,35.645,29.297,37.598,0
1539627552.563,14.648,40.527,36.621,29.297,91.309,1
1539627552.567,10.742,39.551,33.203,22.949,29.785,0
1539627552.571,24.902,40.039,35.156,25.391,-26.855,0
1539627552.574,20.508,40.039,32.227,34.180,52.246,0
1539627552.578,12.207,40.039,29.297,46.875,74.707,0
1539627552.582,20.996,36.621,37.109,23.438,-10.742,0
1539627552.586,20.508,32.715,34.668,17.578,15.625,0
1539627552.590,17.090,34.180,27.344,28.809,15.137,0
1539627552.594,6.836,35.156,28.809,12.695,24.902,0
1539627552.598,-10.742,35.156,28.320,20.020,73.730,0
1539627552.602,3.906,37.109,30.273,27.832,25.391,0
1539627552.606,28.809,38.086,30.273,32.227,-48.828,0
1539627552.610,12.207,38.574,30.273,38.086,19.043,0
1539627552.614,8.789,41.992,34.668,12.207,8.301,0
1539627552.617,19.043,38.574,31.738,0.000,-49.316,0
1539627552.621,9.766,34.668,29.785,18.066,48.340,0
1539627552.625,16.602,38.574,33.203,25.391,63.477,0
1539627552.629,30.762,41.992,35.645,25.391,40.039,0
1539627552.633,39.551,38.086,35.156,30.273,9.277,0
1539627552.637,36.621,38.574,33.203,41.992,27.832,0
1539627552.641,22.461,39.551,38.086,38.086,55.176,0
1539627552.645,11.719,35.156,41.992,30.762,40.039,0
1539627552.649,16.602,34.668,34.180,27.344,19.043,0
1539627552.653,14.648,35.645,30.762,20.020,72.754,0
1539627552.657,10.254,36.133,34.668,35.645,75.684,0
1539627552.660,6.348,34.180,36.133,22.949,58.105,0
1539627552.664,14.648,33.691,37.109,14.648,97.656,0
1539627552.668,2.930,33.203,35.645,32.715,81.543,0
1539627552.672,-5.859,31.250,35.645,36.133,48.828,0
1539627552.676,14.160,29.785,33.691,42.969,28.320,0
1539627552.680,3.906,31.250,30.762,27.832,26.855,0
1539627552.684,-2.930,37.109,34.668,21.973,38.574,0
1539627552.688,12.695,40.039,37.598,28.320,6.348,0
1539627552.692,23.438,35.645,36.133,32.227,6.348,0
1539627552.696,19.043,36.621,35.645,40.527,19.043,0
1539627552.699,15.625,34.180,36.621,30.762,20.996,0
1539627552.703,24.414,31.738,40.527,35.156,84.961,0
1539627552.707,41.016,36.133,33.691,29.297,80.566,0
1539627552.711,42.480,39.551,29.297,26.855,42.969,0
1539627552.715,32.227,40.039,32.715,38.086,29.297,0
1539627552.719,31.738,43.945,30.273,39.062,-0.977,0
1539627552.723,29.297,43.945,24.902,34.668,23.926,0
1539627552.727,17.090,39.062,27.344,25.879,43.457,0
1539627552.731,3.906,32.715,31.250,26.367,-13.672,0
1539627552.735,-7.812,28.320,30.762,26.367,44.922,0
1539627552.739,-5.371,31.738,33.691,29.297,65.918,0
1539627552.742,6.348,33.203,37.109,21.484,52.246,0
1539627552.746,16.602,31.738,34.668,13.672,25.879,0
1539627552.750,23.926,34.180,32.715,27.832,12.207,0
1539627552.754,21.973,41.016,33.203,25.391,7.812,0
1539627552.758,14.160,41.016,29.785,25.879,-13.672,0
1539627552.762,6.348,39.062,29.297,32.715,-0.977,0
1539627552.766,4.883,41.504,34.668,33.203,39.062,0
1539627552.770,21.484,41.504,35.156,39.551,61.035,0
1539627552.774,32.715,40.039,33.203,28.320,46.387,0
1539627552.778,20.996,41.016,31.738,29.785,16.113,0
1539627552.782,16.602,38.574,28.320,43.457,5.371,0
1539627552.785,23.438,34.668,24.902,39.551,9.766,0
1539627552.789,22.949,36.133,28.320,36.133,11.230,0
1539627552.793,18.555,40.039,33.203,40.039,20.996,0
1539627552.797,-0.488,36.621,31.738,29.785,-36.133,0
1539627552.801,-10.254,31.738,30.273,18.066,-17.578,0
1539627552.805,0.000,31.250,29.297,12.695,43.945,0
1539627552.809,5.371,33.691,27.832,0.000,46.387,0
1539627552.813,4.883,33.691,26.855,12.207,49.805,0
1539627552.817,13.184,35.645,30.273,22.461,32.715,0
1539627552.821,21.484,38.086,27.832,29.785,58.105,0
1539627552.824,18.066,35.645,32.715,21.973,28.320,0
1539627552.828,5.859,38.574,34.180,9.277,19.531,0
1539627552.832,9.766,44.434,24.414,37.598,24.414,0
1539627552.836,7.812,41.016,33.691,48.340,11.719,0
1539627552.840,0.977,30.273,43.457,39.551,60.059,0
1539627552.844,0.000,27.344,42.480,34.180,39.551,0
1539627552.848,2.441,27.344,42.480,33.691,-15.625,0
1539627552.852,16.602,29.297,42.969,26.855,1.465,0
1539627552.856,2.441,30.273,44.434,12.207,11.719,0
1539627552.860,-5.371,29.785,46.387,30.762,-2.930,0
1539627552.864,-0.977,31.738,47.852,27.344,-26.367,0
1539627552.867,-2.441,33.691,46.875,9.766,-34.180,0
1539627552.871,-1.465,33.691,42.480,24.414,1.465,0
1539627552.875,-0.977,33.203,35.645,33.203,40.039,0
1539627552.879,-2.930,30.273,34.180,38.086,62.012,0
1539627552.883,2.930,32.227,35.645,20.996,87.402,0
1539627552.887,31.738,36.133,36.133,20.508,58.105,0
1539627552.891,28.320,33.691,41.016,37.109,69.336,0
1539627552.895,10.742,30.762,42.480,41.016,44.922,0
1539627552.899,21.973,30.762,37.598,18.066,25.879,0
1539627552.903,19.531,32.227,35.156,28.320,27.832,0
1539627552.907,8.301,31.250,36.621,48.340,7.812,0
1539627552.910,21.484,27.832,37.598,31.250,43.457,0
1539627552.914,22.949,26.367,36.133,27.344,42.969,0
1539627552.918,0.977,27.344,39.551,36.133,3.906,0
1539627552.922,-14.648,27.344,38.574,35.645,-9.277,0
1539627552.926,-1.953,30.762,36.133,24.414,-32.227,0
1539627552.930,10.742,32.715,34.180,25.391,-26.367,0
1539627552.934,14.160,31.738,34.180,26.367,22.461,0
1539627552.938,5.859,29.297,41.504,24.414,63.477,0
1539627552.942,6.348,29.785,37.598,31.738,56.152,0
1539627552.946,14.160,35.156,33.691,32.715,9.277,0
1539627552.949,-1.465,33.691,40.039,27.832,32.227,0
1539627552.953,0.977,32.227,39.551,35.156,24.902,0
1539627552.957,20.020,31.250,36.133,40.039,1.953,0
1539627552.961,15.625,30.762,37.109,29.785,38.086,0
1539627552.965,23.926,33.691,34.668,23.926,14.648,0
1539627552.969,3.418,36.621,30.762,32.715,7.324,0
1539627552.973,-17.578,34.668,33.203,23.438,58.594,0
1539627552.977,1.953,32.227,35.645,13.672,69.824,0
1539627552.981,12.207,33.203,35.645,33.203,58.594,0
1539627552.985,22.461,37.109,33.203,32.227,104.492,0
1539627552.989,21.484,39.551,33.691,26.367,67.871,0
1539627552.992,13.184,41.016,32.715,16.602,16.602,0
1539627552.996,21.484,43.457,24.414,18.066,94.727,0
1539627553.000,10.254,42.969,23.438,25.879,70.801,0
1539627553.004,-16.602,39.062,25.391,15.137,30.273,0
1539627553.008,-7.812,38.086,27.832,20.508,50.293,0
1539627553.012,13.672,42.480,27.832,31.250,89.844,0
1539627553.016,20.508,42.969,27.344,14.160,95.215,0
1539627553.020,19.531,41.504,28.320,26.855,50.781,0
1539627553.024,13.672,38.574,31.250,40.039,-10.254,0
1539627553.028,12.695,39.551,36.133,7.812,10.254,0
1539627553.032,13.184,41.992,33.691,17.090,81.543,0
1539627553.035,14.160,38.574,30.762,32.227,78.125,0
1539627553.039,19.531,36.621,30.762,18.066,51.270,0
1539627553.043,0.977,36.133,31.738,23.438,24.414,0
1539627553.047,-4.883,39.062,30.762,28.809,18.066,0
1539627553.051,8.789,43.457,31.738,27.832,-4.883,0
1539627553.055,19.531,41.504,33.691,20.508,-2.441,0
1539627553.059,14.160,40.527,35.156,29.297,1.465,0
1539627553.063,17.578,38.574,36.133,17.090,4.883,0
1539627553.067,14.648,34.180,36.133,0.488,26.855,0
1539627553.071,3.906,32.227,36.621,29.785,27.832,0
1539627553.074,8.789,35.156,35.645,43.457,-3.906,0
1539627553.078,11.719,37.109,37.109,33.203,21.484,0
1539627553.082,-6.348,30.273,38.086,31.738,49.316,0
1539627553.086,-1.465,26.855,36.133,33.203,28.809,0
1539627553.090,18.555,35.645,29.297,16.602,89.844,0
1539627553.094,9.277,39.551,27.344,11.719,77.637,0
1539627553.098,3.418,35.156,32.715,25.879,56.641,0
1539627553.102,-0.488,36.621,32.715,16.602,67.871,0
1539627553.106,1.953,40.527,32.715,2.930,15.137,0
1539627553.110,3.418,35.156,35.156,16.113,11.230,0
1539627553.114,-1.465,36.133,31.250,29.297,49.805,0
1539627553.117,12.695,40.527,30.762,33.203,84.473,0
1539627553.121,37.109,39.062,33.203,17.090,85.938,0
1539627553.125,35.645,36.621,30.273,15.137,85.938,0
1539627553.129,19.043,35.156,30.762,40.039,33.691,0
1539627553.133,8.789,34.668,30.273,38.574,3.418,0
1539627553.137,13.672,33.203,33.691,9.277,13.672,0
1539627553.141,11.719,34.668,35.156,8.301,11.719,0
1539627553.145,-2.930,37.109,35.156,22.949,48.828,0
1539627553.149,-11.230,40.039,33.203,36.133,43.945,0
1539627553.153,-11.719,37.598,38.574,36.133,49.316,0
1539627553.157,0.488,35.645,40.039,31.738,-13.672,0
1539627553.160,3.906,35.645,30.762,28.809,-30.273,0
1539627553.164,9.277,36.133,29.297,31.250,50.781,0
1539627553.168,12.695,39.062,31.738,36.621,34.668,0
1539627553.172,25.879,38.574,35.645,30.762,36.621,0
1539627553.176,30.273,39.062,34.180,24.902,29.785,0
1539627553.180,14.648,38.574,34.180,25.391,-35.645,0
1539627553.184,4.883,39.062,33.691,30.273,-20.020,0
1539627553.188,2.930,39.062,31.250,28.809,-14.160,0
1539627553.192,18.555,35.156,31.738,19.043,10.742,0
1539627553.196,6.348,34.668,33.691,13.672,34.180,0
1539627553.199,0.488,34.668,34.180,24.902,47.363,0
1539627553.203,11.230,32.227,30.762,25.391,61.523,0
1539627553.207,8.301,34.668,33.203,14.648,55.176,0
1539627553.211,12.695,34.180,36.133,35.156,56.152,0
1539627553.215,11.230,35.645,31.250,34.180,66.895,0
1539627553.219,12.207,41.016,30.762,20.020,34.668,0
1539627553.223,16.113,40.039,31.738,28.809,73.730,0
1539627553.227,6.348,36.621,30.273,41.016,71.777,0
1539627553.231,9.766,36.133,33.691,28.320,47.363,0
1539627553.235,16.113,40.039,29.785,20.996,104.004,0
1539627553.239,14.160,40.039,26.855,27.832,112.305,0
1539627553.242,13.672,36.621,31.738,21.973,68.848,0
1539627553.246,16.113,37.598,32.715,36.133,87.402,0
1539627553.250,11.230,36.133,32.227,27.344,70.312,0
1539627553.254,10.254,36.133,31.250,12.695,16.602,0
1539627553.258,18.066,36.621,27.344,10.742,-44.922,0
1539627553.262,20.508,36.621,28.320,13.184,24.414,0
1539627553.266,26.367,39.551,31.250,24.414,102.051,0
1539627553.270,27.832,38.574,29.785,12.207,33.691,0
1539627553.274,20.020,38.574,30.762,18.555,55.176,0
1539627553.278,14.648,40.039,36.133,23.438,26.367,0
1539627553.282,29.785,41.504,37.109,15.137,-8.301,0
1539627553.285,33.203,39.551,33.691,16.113,52.246,0
1539627553.289,3.418,34.668,33.203,23.926,69.336,0
1539627553.293,9.277,35.645,27.832,31.738,45.410,0
1539627553.297,30.762,39.551,26.855,39.062,69.824,0
1539627553.301,22.461,37.109,34.180,47.363,51.758,0
1539627553.305,-3.418,28.809,43.945,34.668,53.711,0
1539627553.309,-12.207,27.832,44.922,13.184,42.969,0
1539627553.313,-0.488,28.320,42.969,14.160,33.691,0
1539627553.317,3.418,25.879,43.457,20.020,78.125,0
1539627553.321,-1.465,24.414,41.504,19.531,39.551,0
1539627553.324,1.953,27.344,38.086,26.367,-7.812,0
1539627553.328,19.531,28.320,43.945,33.691,27.832,0
1539627553.332,22.461,29.297,45.898,29.297,35.156,0
1539627553.336,20.996,34.668,38.086,36.621,6.348,0
1539627553.340,11.719,35.156,35.645,36.133,16.602,0
1539627553.344,6.836,35.645,37.598,39.062,-1.465,0
1539627553.348,-2.441,34.668,43.457,37.109,17.090,0
1539627553.352,4.883,28.809,42.480,17.090,80.566,0
1539627553.356,9.277,27.344,41.992,20.996,41.016,0
1539627553.360,0.000,30.762,43.457,28.320,35.645,0
1539627553.364,13.184,35.156,41.016,28.809,53.711,0
1539627553.367,10.742,31.738,39.062,30.273,25.879,0
1539627553.371,17.090,30.762,39.551,28.809,1.465,0
1539627553.375,32.227,34.668,38.574,35.156,17.090,0
1539627553.379,26.855,30.762,36.133,32.227,24.414,0
1539627553.383,6.348,29.785,32.227,18.066,-2.441,0
1539627553.387,3.906,33.691,33.691,27.832,13.184,0
1539627553.391,5.859,36.133,36.133,39.551,-25.879,0
1539627553.395,10.254,34.668,35.645,32.227,-42.480,0
1539627553.399,3.906,31.738,36.621,23.926,39.062,0
1539627553.403,-4.395,31.738,35.645,30.762,-1.465,0
1539627553.407,26.855,32.715,35.645,24.902,-16.113,0
1539627553.410,24.414,33.691,38.086,20.996,35.645,0
1539627553.414,12.695,33.691,41.504,16.602,32.227,0
1539627553.418,3.906,35.156,41.992,13.184,49.316,0
1539627553.422,0.488,40.527,39.551,24.902,52.734,0
1539627553.426,2.930,35.156,26.367,34.180,63.477,0
1539627553.430,-0.977,30.762,18.066,26.367,59.570,0
1539627553.434,8.301,32.227,22.461,26.855,100.586,0
1539627553.438,12.695,32.715,29.297,37.109,83.008,0
1539627553.442,10.254,33.203,38.086,27.344,28.320,0
1539627553.446,16.113,35.156,44.434,32.227,13.184,0
1539627553.449,10.254,35.645,41.016,48.340,0.977,0
1539627553.453,-1.465,33.203,36.133,28.320,7.324,0
1539627553.457,1.465,28.809,38.574,22.461,-0.977,0
1539627553.461,18.066,27.344,38.086,41.504,-5.859,0
1539627553.465,23.438,32.227,36.133,30.273,25.391,0
1539627553.469,26.855,32.227,37.109,16.602,73.242,0
1539627553.473,9.766,27.344,37.598,23.438,87.891,0
1539627553.477,-8.789,28.320,34.180,32.227,74.219,0
1539627553.481,10.254,31.738,35.645,35.156,32.715,0
1539627553.485,14.160,35.156,35.645,25.879,23.926,0
1539627553.489,6.836,38.574,33.691,35.156,64.453,0
1539627553.492,15.137,35.156,38.086,37.598,19.043,0
1539627553.496,22.949,28.320,36.621,29.785,-20.996,0
1539627553.500,13.184,31.738,33.691,34.180,48.340,0
1539627553.504,18.555,42.969,31.738,33.691,53.711,0
1539627553.508,34.668,44.434,33.691,25.879,5.371,0
1539627553.512,5.859,42.969,31.738,19.531,37.598,0
1539627553.516,-1.465,43.945,28.809,19.043,59.570,0
1539627553.520,8.789,41.016,27.344,26.367,45.410,0
1539627553.524,4.395,36.621,29.297,30.273,43.457,0
1539627553.528,19.531,33.691,32.227,7.812,44.434,0
1539627553.532,19.043,34.180,30.273,9.766,22.949,0
1539627553.535,16.602,35.156,32.227,24.414,34.668,0
1539627553.539,24.414,36.621,29.297,26.367,55.176,0
1539627553.543,19.531,40.527,23.438,31.250,-3.418,0
1539627553.547,18.555,41.504,30.273,32.715,-22.949,0
1539627553.551,19.531,40.039,33.203,24.902,-4.395,0
1539627553.555,8.789,35.645,28.809,18.066,-11.719,0
1539627553.559,7.812,33.691,26.367,19.043,-6.348,0
1539627553.563,10.254,33.203,26.855,16.113,41.992,0
1539627553.567,7.812,32.715,30.273,20.020,46.875,0
1539627553.571,-1.953,33.203,30.762,30.762,34.180,0
1539627553.574,-1.953,33.691,32.227,32.715,30.273,0
1539627553.578,3.418,36.621,33.203,18.066,-14.160,0
1539627553.582,16.113,41.992,31.250,18.555,20.996,0
1539627553.586,16.602,37.109,31.738,27.344,47.852,0
1539627553.590,15.137,30.273,35.156,21.973,-8.789,0
1539627553.594,8.789,35.156,35.645,21.484,4.883,0
1539627553.598,0.488,38.574,36.621,23.926,25.391,0
1539627553.602,8.301,40.039,35.645,30.273,8.789,0
1539627553.606,17.578,41.992,33.203,36.621,4.883,0
1539627553.610,21.484,40.527,31.250,18.066,-3.906,0
1539627553.614,16.113,41.016,31.250,17.090,12.207,0
1539627553.617,9.277,38.574,30.762,32.227,40.039,0
1539627553.621,15.625,38.086,33.203,30.762,88.379,0
1539627553.625,12.695,40.039,37.109,27.832,78.613,0
1539627553.629,15.625,39.551,38.086,19.043,25.391,0
1539627553.633,20.508,40.527,31.250,23.438,11.230,0
1539627553.637,20.508,42.480,25.879,23.926,50.781,0
1539627553.641,14.160,39.062,27.832,22.949,60.059,0
1539627553.645,3.906,33.691,30.762,28.320,34.180,0
1539627553.649,1.465,32.715,33.691,35.156,30.273,0
1539627553.653,-0.488,31.738,35.156,38.086,21.973,0
1539627553.657,1.953,29.785,37.598,36.621,3.906,0
1539627553.660,0.000,30.273,38.574,16.113,45.410,0
1539627553.664,0.977,33.691,36.621,11.230,62.500,0
1539627553.668,9.766,32.715,35.645,26.367,22.461,0
1539627553.672,12.207,30.273,33.203,31.250,38.086,0
1539627553.676,17.090,33.203,28.809,27.344,38.086,0
1539627553.680,13.672,34.180,29.785,21.484,71.289,0
1539627553.684,15.625,34.668,31.738,19.531,62.500,0
1539627553.688,21.973,35.645,29.785,23.926,33.691,0
1539627553.692,13.184,37.109,33.691,23.926,35.156,0
1539627553.696,4.883,38.086,35.156,21.973,24.414,0
1539627553.699,6.836,38.086,33.203,20.020,21.484,0
1539627553.703,13.184,35.645,33.691,10.254,42.969,0
1539627553.707,13.672,32.715,30.762,18.066,17.090,0
1539627553.711,35.645,36.621,29.785,31.250,9.766,0
1539627553.715,32.715,39.062,31.738,50.781,35.156,0
1539627553.719,0.488,37.109,35.645,50.781,1.953,0
1539627553.723,0.000,37.109,36.621,8.789,9.277,0
1539627553.727,6.348,39.062,31.250,12.695,43.945,0
1539627553.731,-2.441,38.086,31.738,25.879,27.344,0
1539627553.735,0.977,37.598,32.715,23.926,45.898,0
1539627553.739,5.371,38.574,30.762,32.227,55.176,0
1539627553.742,-4.395,35.645,34.180,28.320,12.207,0
1539627553.746,6.348,39.062,34.180,20.020,-17.090,0
1539627553.750,50.293,45.898,28.809,33.691,7.812,0
1539627553.754,60.059,47.363,30.762,51.270,69.336,0
1539627553.758,42.480,41.016,38.574,40.527,44.434,0
1539627553.762,20.020,35.645,41.504,34.180,66.895,0
1539627553.766,-8.301,32.715,36.621,29.297,115.234,0
1539627553.770,-11.230,31.738,36.621,8.789,93.262,0
1539627553.774,-4.883,33.203,41.504,6.348,64.941,0
1539627553.778,-3.906,31.738,42.480,7.812,27.344,0
1539627553.782,2.930,35.645,34.180,9.766,-12.695,0
1539627553.785,14.648,36.133,30.273,23.438,9.277,0
1539627553.789,5.859,34.180,33.203,27.344,-15.137,0
1539627553.793,13.672,35.156,33.691,23.926,-0.977,0
1539627553.797,21.484,35.156,38.574,20.020,39.551,0
1539627553.801,-7.324,35.645,37.598,27.832,41.992,0
1539627553.805,-5.371,37.598,25.879,42.480,42.969,0
1539627553.809,16.602,39.062,29.785,15.137,14.648,0
1539627553.813,13.184,35.645,36.133,1.465,55.176,0
1539627553.817,5.371,35.645,35.645,27.344,48.340,0
1539627553.821,9.277,34.668,42.480,27.832,17.578,0
1539627553.824,11.719,33.203,42.969,20.020,67.871,0
1539627553.828,12.207,34.668,37.109,20.996,123.047,0
1539627553.832,15.625,34.180,37.109,39.062,97.656,0
1539627553.836,10.254,35.645,40.039,24.414,17.090,0
1539627553.840,1.465,36.133,39.062,-7.812,29.297,0
1539627553.844,7.324,37.598,35.156,15.137,57.129,0
1539627553.848,9.277,40.039,30.273,32.227,28.320,0
1539627553.852,7.812,36.133,36.133,29.297,39.062,0
1539627553.856,17.090,34.668,37.598,30.762,68.848,0
1539627553.860,19.531,36.133,34.180,31.250,33.691,0
1539627553.864,10.254,34.668,35.645,16.602,28.809,0
1539627553.867,6.836,36.133,37.598,25.391,48.828,0
1539627553.871,-2.930,35.645,38.086,50.293,8.301,0
1539627553.875,-12.695,32.715,36.621,32.715,10.742,0
1539627553.879,4.883,33.691,36.621,24.414,21.973,0
1539627553.883,20.020,35.156,38.086,50.293,42.969,0
1539627553.887,13.672,32.715,32.715,24.414,28.809,0
1539627553.891,22.949,35.645,30.762,0.000,18.066,0
1539627553.895,31.738,38.574,33.203,30.273,25.879,0
1539627553.899,27.832,36.621,33.691,41.992,-25.879,0
1539627553.903,21.973,33.691,33.203,37.598,-21.484,0
1539627553.907,21.484,30.762,33.203,32.227,23.926,0
1539627553.910,6.836,32.715,30.273,30.273,3.418,0
1539627553.914,-9.277,33.203,29.297,20.508,-19.531,0
1539627553.918,0.000,35.645,32.227,9.277,90.332,0
1539627553.922,9.766,37.109,30.762,26.367,113.281,0
1539627553.926,14.648,33.691,27.832,30.762,55.664,0
1539627553.930,31.250,34.668,26.367,23.926,62.012,0
1539627553.934,25.879,36.621,28.809,22.461,51.758,0
1539627553.938,6.348,33.203,38.086,17.578,18.555,0
1539627553.942,3.418,30.762,41.992,23.926,-0.488,1
1539627553.946,14.160,29.785,36.133,42.480,-9.277,0
1539627553.949,17.578,34.668,35.156,41.016,-26.855,0
1539627553.953,9.277,42.480,30.762,18.066,-18.066,0
1539627553.957,10.742,42.480,24.414,7.324,21.484,0
1539627553.961,11.230,41.016,27.344,15.625,38.574,0
1539627553.965,10.742,41.504,23.438,38.574,7.324,0
1539627553.969,18.066,40.527,20.020,34.180,6.348,0
1539627553.973,11.230,37.598,28.809,8.301,11.719,0
1539627553.977,0.000,33.691,30.762,5.859,38.574,0
1539627553.981,20.020,32.227,29.297,23.926,20.996,0
1539627553.985,26.367,34.180,32.227,32.715,22.461,0
1539627553.989,23.926,40.039,37.109,33.691,14.648,0
1539627553.992,16.602,39.551,39.062,20.508,-47.852,0
1539627553.996,-7.324,38.086,33.691,4.395,39.062,0
1539627554.000,-0.488,37.109,26.855,18.066,121.094,0
1539627554.004,-0.488,37.109,30.762,18.066,104.980,0
1539627554.008,3.906,38.086,36.133,15.137,93.262,0
1539627554.012,15.625,36.621,31.738,25.879,74.219,0
1539627554.016,16.113,35.645,28.809,42.969,66.895,0
1539627554.020,18.555,36.621,31.250,32.715,58.594,0
1539627554.024,21.973,41.992,36.621,13.672,20.996,0
1539627554.028,29.785,42.969,37.109,35.156,20.020,0
1539627554.032,24.414,42.480,35.156,53.223,55.176,0
1539627554.035,20.508,41.504,37.109,39.062,55.664,0
1539627554.039,33.203,36.621,37.109,21.484,44.434,0
1539627554.043,24.902,34.180,36.133,28.320,3.418,0
1539627554.047,6.836,34.668,35.645,34.180,-9.277,0
1539627554.051,10.742,36.621,35.156,23.438,-38.086,0
1539627554.055,17.578,36.133,35.645,12.207,-2.930,0
1539627554.059,13.184,33.203,32.227,20.508,75.684,0
1539627554.063,23.438,34.668,30.762,20.996,61.523,0
1539627554.067,28.809,37.109,32.227,22.949,50.781,0
1539627554.071,-1.953,35.645,35.645,23.926,42.480,0
1539627554.074,-13.672,33.203,38.086,17.090,16.113,0
1539627554.078,7.324,32.715,41.016,19.531,14.648,0
1539627554.082,17.090,33.203,37.109,24.414,-3.418,0
1539627554.086,23.438,36.133,32.715,35.645,3.418,0
1539627554.090,19.531,38.574,34.180,43.945,-20.508,0
1539627554.094,14.648,38.086,36.621,41.016,0.000,0
1539627554.098,26.367,39.062,39.062,29.785,40.039,0
1539627554.102,20.508,38.574,35.645,28.809,28.809,0
1539627554.106,1.953,37.598,31.738,34.180,48.828,0
1539627554.110,18.066,37.598,30.762,23.438,42.969,0
1539627554.114,26.367,40.527,32.715,20.020,47.363,0
1539627554.117,20.020,38.086,35.156,22.949,23.438,0
1539627554.121,31.250,37.109,37.598,14.160,-2.930,0
1539627554.125,45.410,40.527,37.598,15.625,40.527,0
1539627554.129,33.691,39.551,30.273,19.043,86.914,0
1539627554.133,6.348,40.039,23.926,20.996,49.316,0
1539627554.137,11.719,39.551,34.180,23.926,45.410,0
1539627554.141,19.531,40.039,42.969,12.695,44.922,0
1539627554.145,17.578,40.039,37.109,5.859,14.160,0
1539627554.149,19.043,38.574,38.574,22.461,23.926,0
1539627554.153,8.301,34.668,41.992,22.949,51.758,0
1539627554.157,3.906,30.762,37.598,19.531,60.547,0
1539627554.160,13.672,34.180,37.109,19.043,87.402,0
1539627554.164,5.859,36.621,35.645,23.926,52.734,0
1539627554.168,4.883,32.227,34.180,39.551,41.992,0
1539627554.172,10.742,32.227,40.039,26.367,145.020,0
1539627554.176,15.137,38.574,41.992,20.020,71.777,0
1539627554.180,11.719,37.598,37.109,31.738,2.930,0
1539627554.184,-8.301,34.180,30.273,27.832,-8.301,0
1539627554.188,-6.836,33.691,30.273,8.789,-21.484,0
1539627554.192,9.277,33.203,29.297,1.953,13.184,0
1539627554.196,10.254,36.133,30.762,22.949,-2.441,0
1539627554.199,8.789,36.133,38.574,16.113,51.270,0
1539627554.203,12.207,34.668,36.133,9.766,83.008,0
1539627554.207,4.395,35.156,30.762,31.738,56.641,0
1539627554.211,0.977,37.109,36.133,36.133,39.062,0
1539627554.215,-5.859,36.621,40.039,20.020,21.973,0
1539627554.219,-3.906,34.180,37.109,26.367,-10.742,0
1539627554.223,7.812,33.691,34.180,28.809,29.785,0
1539627554.227,12.695,33.203,36.621,37.598,44.922,0
1539627554.231,13.184,33.203,39.551,20.996,10.742,0
1539627554.235,24.902,34.668,33.203,0.977,-1.953,0
1539627554.239,29.297,33.691,32.227,25.879,-3.418,0
1539627554.242,13.672,33.203,35.645,29.785,19.531,0
1539627554.246,0.488,34.180,38.086,30.762,60.547,0
1539627554.250,-7.812,35.156,39.551,27.344,55.176,0
1539627554.254,-2.441,36.133,33.691,23.438,21.973,0
1539627554.258,16.113,35.645,29.785,23.926,7.324,0
1539627554.262,22.461,37.109,29.297,23.926,39.551,0
1539627554.266,22.461,40.039,28.320,20.508,51.270,0
1539627554.270,34.668,42.480,32.227,14.648,56.152,0
1539627554.274,36.133,39.062,34.668,28.320,45.410,0
1539627554.278,27.832,38.574,38.574,28.809,19.043,0
1539627554.282,15.137,38.086,41.992,15.625,62.012,0
1539627554.285,-1.465,37.109,36.621,28.320,33.203,0
1539627554.289,8.301,39.062,32.715,39.062,-55.664,0
1539627554.293,26.855,34.668,30.762,36.133,44.922,0
1539627554.297,20.020,24.414,33.691,37.109,65.918,0
1539627554.301,1.465,22.949,41.504,35.645,9.766,0
1539627554.305,10.254,23.926,53.223,44.922,17.090,0
1539627554.309,28.809,24.902,49.805,32.715,20.508,0
1539627554.313,16.113,29.785,37.598,2.930,56.152,0
1539627554.317,8.301,33.203,33.203,22.949,40.527,0
1539627554.321,12.695,31.250,34.668,42.969,16.602,0
1539627554.324,22.461,31.738,36.133,29.785,-0.977,0
1539627554.328,18.066,32.227,33.691,28.320,0.977,0
1539627554.332,3.418,25.391,38.574,29.785,39.062,0
1539627554.336,8.789,28.320,44.922,14.160,35.156,0
1539627554.340,14.160,35.645,38.574,14.160,-0.977,0
1539627554.344,17.090,32.715,31.738,27.344,17.090,0
1539627554.348,29.297,31.738,35.156,35.645,26.367,0
1539627554.352,21.484,33.203,35.156,34.668,-0.488,0
1539627554.356,0.000,27.832,38.574,25.391,-2.930,0
1539627554.360,6.836,26.367,41.992,21.973,-37.109,0
1539627554.364,15.137,30.273,44.922,36.133,-0.977,0
1539627554.367,9.277,33.691,44.922,40.039,53.711,0
1539627554.371,23.438,31.250,41.016,37.598,3.418,0
1539627554.375,30.762,30.273,39.062,43.945,-57.129,0
1539627554.379,20.508,29.785,38.086,30.273,-12.695,0
1539627554.383,10.742,31.738,35.645,18.066,3.906,0
1539627554.387,2.441,32.227,33.691,14.648,11.719,0
1539627554.391,13.184,34.180,34.180,19.531,36.133,0
1539627554.395,15.137,35.645,36.133,29.297,35.156,0
1539627554.399,11.230,30.762,40.527,12.695,19.531,0
1539627554.403,6.836,27.832,40.039,14.648,5.859,0
1539627554.407,9.766,27.344,39.551,35.156,18.066,0
1539627554.410,25.391,31.250,36.621,38.086,40.527,0
1539627554.414,32.715,33.203,35.156,24.414,48.828,0
1539627554.418,21.973,34.668,37.598,27.832,51.270,0
1539627554.422,-17.578,33.691,36.133,34.180,97.656,0
1539627554.426,-9.277,30.762,39.551,19.531,87.402,0
1539627554.430,19.043,31.250,41.016,33.691,36.133,0
1539627554.434,13.672,36.621,37.598,31.250,42.480,0
1539627554.438,9.766,36.133,38.574,27.344,92.773,0
1539627554.442,9.277,36.133,38.574,44.434,93.750,0
1539627554.446,10.742,41.504,35.156,16.113,20.996,0
1539627554.449,8.301,39.551,36.133,3.906,4.883,0
1539627554.453,14.160,37.598,34.180,35.645,49.805,0
1539627554.457,18.066,38.086,28.809,37.109,34.180,0
1539627554.461,21.484,31.250,33.691,40.039,61.035,0
1539627554.465,32.715,28.320,36.621,53.223,90.820,0
1539627554.469,27.344,36.621,32.715,45.410,30.273,0
1539627554.473,15.625,42.480,35.156,32.715,3.906,0
1539627554.477,6.348,38.086,37.109,28.320,50.781,0
1539627554.481,1.465,36.133,32.227,11.719,20.020,0
1539627554.485,2.441,38.574,26.367,9.277,-13.184,0
1539627554.489,5.859,37.598,26.855,20.508,68.848,0
1539627554.492,-14.648,36.133,30.273,10.742,43.457,0
1539627554.496,-10.742,36.133,32.715,5.371,8.789,0
1539627554.500,8.789,39.551,33.691,20.508,24.414,0
1539627554.504,11.719,42.480,32.227,34.668,-0.488,0
1539627554.508,11.230,40.039,30.762,32.227,-13.184,0
1539627554.512,3.906,38.086,35.645,24.902,-19.043,0
1539627554.516,8.301,40.527,33.691,21.484,16.113,0
1539627554.520,19.043,36.621,28.809,27.344,60.059,0
1539627554.524,18.066,37.109,28.320,30.273,43.457,0
1539627554.528,8.301,40.527,28.320,34.668,32.227,0
1539627554.532,19.043,39.551,29.785,34.180,43.457,0
1539627554.535,35.645,38.574,31.738,35.156,29.785,0
1539627554.539,32.715,35.645,31.738,38.574,12.695,0
1539627554.543,20.020,40.527,31.738,33.203,0.000,0
1539627554.547,7.324,40.039,35.645,25.391,53.223,0
1539627554.551,3.906,40.039,37.109,25.391,39.551,0
1539627554.555,-4.883,43.457,35.645,32.227,25.391,0
1539627554.559,5.859,37.598,31.250,19.531,32.227,0
1539627554.563,25.879,34.668,25.391,10.254,37.109,0
1539627554.567,22.949,34.668,30.273,32.715,87.891,0
1539627554.571,7.324,36.621,30.762,28.320,85.938,0
1539627554.574,-2.441,34.668,28.320,34.668,55.176,0
1539627554.578,3.906,35.156,32.715,24.414,33.203,0
1539627554.582,9.766,33.691,36.621,15.137,11.230,0
1539627554.586,8.301,32.227,36.133,35.645,-19.043,0
1539627554.590,15.625,37.109,30.762,37.109,-27.832,0
1539627554.594,20.020,37.598,22.461,31.738,20.996,0
1539627554.598,27.832,36.133,25.391,47.852,48.828,0
1539627554.602,23.926,36.621,34.180,46.875,7.812,0
1539627554.606,-6.348,36.133,35.645,32.715,4.395,0
1539627554.610,-2.930,32.715,40.527,30.273,-4.395,0
1539627554.614,17.578,32.715,40.039,19.043,21.484,0
1539627554.617,22.949,31.738,33.203,31.738,49.805,0
1539627554.621,19.531,32.227,36.133,40.527,74.707,0
1539627554.625,5.859,35.645,35.645,38.086,83.008,0
1539627554.629,17.090,32.715,32.227,31.738,65.918,0
1539627554.633,19.531,32.715,29.785,22.461,55.664,0
1539627554.637,3.906,33.203,32.227,16.113,64.453,0
1539627554.641,5.371,31.250,33.691,19.043,50.293,0
1539627554.645,17.090,33.691,29.297,20.996,-0.488,0
1539627554.649,16.113,33.691,29.297,20.996,-2.930,0
1539627554.653,11.719,33.203,32.227,16.602,8.789,0
1539627554.657,17.578,34.180,33.691,22.461,-21.484,0
1539627554.660,31.250,38.086,34.668,29.297,3.906,0
1539627554.664,31.738,39.551,33.691,15.137,30.273,0
1539627554.668,15.625,36.133,32.227,5.371,22.949,0
1539627554.672,-3.906,34.668,37.109,12.207,58.594,0
1539627554.676,0.488,31.738,39.551,25.879,35.645,0
1539627554.680,9.766,31.250,35.645,40.039,-13.184,0
1539627554.684,0.488,36.133,34.180,20.996,32.227,0
1539627554.688,5.371,41.504,33.203,11.719,58.594,0
1539627554.692,16.113,38.574,29.785,23.926,16.113,0
1539627554.696,10.742,34.668,33.203,25.391,35.645,0
1539627554.699,22.949,41.016,37.109,32.227,60.547,0
1539627554.703,23.438,42.969,31.738,31.250,29.297,0
1539627554.707,6.836,42.480,27.344,39.062,-16.113,0
1539627554.711,16.602,42.480,31.250,43.457,-9.277,0
1539627554.715,2.930,37.598,35.156,22.949,20.996,0
1539627554.719,0.000,33.691,38.574,17.578,-13.184,0
1539627554.723,13.672,34.668,38.574,23.926,-15.625,0
1539627554.727,0.977,34.668,34.180,16.113,34.668,0
1539627554.731,17.090,36.621,35.645,20.020,37.598,0
1539627554.735,29.785,38.086,36.133,22.949,2.441,0
1539627554.739,25.391,36.133,34.668,30.273,13.184,0
1539627554.742,19.531,34.668,36.133,27.344,60.059,0
1539627554.746,0.977,31.738,37.109,26.855,50.293,0
1539627554.750,-6.836,33.691,31.738,34.668,0.488,0
1539627554.754,23.926,36.621,31.738,34.668,49.805,0
1539627554.758,27.344,39.062,37.598,22.461,82.520,0
1539627554.762,18.555,39.062,38.086,34.180,62.988,0
1539627554.766,20.020,37.109,36.133,37.598,61.523,0
1539627554.770,11.719,36.133,37.109,21.484,53.223,0
1539627554.774,9.766,31.250,37.109,21.973,123.535,0
1539627554.778,14.160,32.715,33.691,26.855,125.000,0
1539627554.782,11.719,33.203,35.156,34.180,63.477,0
1539627554.785,4.883,31.738,38.086,33.691,53.223,0
1539627554.789,-0.488,33.203,35.645,28.809,34.180,0
1539627554.793,-3.418,34.668,38.086,19.043,6.348,0
1539627554.797,20.996,36.133,37.109,17.578,4.395,0
1539627554.801,27.344,35.156,33.203,33.203,-1.953,0
1539627554.805,23.926,36.133,31.738,49.805,-12.207,0
1539627554.809,15.625,38.574,31.250,30.762,2.441,0
1539627554.813,10.254,40.039,33.203,4.395,32.227,0
1539627554.817,19.531,37.598,32.715,34.180,7.324,0
1539627554.821,14.648,35.645,35.156,45.898,-17.578,0
1539627554.824,0.000,35.156,39.551,30.273,45.898,0
1539627554.828,12.695,37.109,38.086,30.762,49.316,0
1539627554.832,32.715,40.039,31.250,25.879,-13.672,0
1539627554.836,18.555,34.180,32.227,12.695,13.184,0
1539627554.840,2.441,29.297,37.109,20.020,82.031,0
1539627554.844,15.137,34.180,27.344,25.879,76.172,0
1539627554.848,25.879,40.039,25.879,4.395,-35.156,0
1539627554.852,13.184,39.551,31.250,8.789,-28.320,0
1539627554.856,-16.602,33.203,38.574,24.902,-2.441,0
1539627554.860,-7.812,35.645,40.527,36.621,7.812,0
1539627554.864,20.996,46.387,28.320,45.898,41.504,0
1539627554.867,13.184,39.551,37.598,41.504,31.738,0
1539627554.871,4.883,30.273,46.875,39.062,20.020,0
1539627554.875,10.742,28.809,43.457,33.691,45.410,0
1539627554.879,13.184,29.785,41.016,21.484,22.949,0
1539627554.883,13.184,32.715,41.504,22.949,-4.883,0
1539627554.887,14.160,29.785,44.922,32.715,5.371,0
1539627554.891,6.348,30.762,43.457,26.367,20.996,0
1539627554.895,5.371,35.156,41.992,23.438,49.805,0
1539627554.899,8.301,32.227,39.551,30.762,27.344,0
1539627554.903,12.207,31.738,36.621,30.762,-5.859,0
1539627554.907,8.789,29.785,37.109,16.602,19.043,0
1539627554.910,4.883,25.879,35.156,28.320,20.996,0
1539627554.914,-4.883,30.762,33.203,21.484,26.855,0
1539627554.918,2.441,36.621,33.691,9.277,85.938,0
1539627554.922,31.738,38.574,33.691,29.297,10.742,0
1539627554.926,20.020,40.039,32.227,40.527,-35.645,0
1539627554.930,7.324,36.621,30.762,37.109,-10.254,0
1539627554.934,14.648,32.715,30.762,16.602,15.137,0
1539627554.938,16.113,32.227,34.180,27.832,-9.277,0
1539627554.942,24.902,36.621,34.180,40.039,6.348,0
1539627554.946,35.156,37.598,32.227,33.691,62.012,0
1539627554.949,28.320,33.203,35.645,26.367,16.113,0
1539627554.953,21.973,35.156,37.109,32.715,27.344,0
1539627554.957,9.277,34.668,30.762,27.832,53.223,0
1539627554.961,5.371,32.715,29.297,17.090,32.715,0
1539627554.965,7.812,29.785,33.203,20.508,52.734,0
1539627554.969,9.766,30.762,34.180,34.180,56.641,0
1539627554.973,2.930,34.180,32.715,23.926,17.578,0
1539627554.977,-1.953,33.691,34.668,9.277,13.184,0
1539627554.981,11.230,35.645,36.621,19.531,28.809,0
1539627554.985,11.719,33.203,28.320,9.766,18.555,0
1539627554.989,29.785,36.133,25.879,14.648,23.926,0
1539627554.992,39.062,38.086,31.738,16.113,25.391,0
1539627554.996,39.551,32.715,34.180,26.855,64.941,0
1539627555.000,30.273,33.203,36.133,36.621,49.805,0
1539627555.004,25.879,40.039,30.273,8.789,47.852,0
1539627555.008,18.555,43.457,27.832,-2.441,36.621,0
1539627555.012,10.254,41.992,28.320,8.789,15.137,0
1539627555.016,9.766,40.039,24.902,16.602,104.492,0
1539627555.020,-4.883,39.062,27.832,10.254,72.266,0
1539627555.024,-4.883,41.504,26.855,12.695,62.988,0
1539627555.028,4.395,43.457,24.414,27.344,100.098,0
1539627555.032,8.301,40.527,31.738,35.645,79.590,0
1539627555.035,4.395,36.621,32.715,30.762,42.969,0
1539627555.039,-8.301,36.133,29.785,24.414,66.406,0
1539627555.043,-8.789,39.551,32.227,24.414,118.164,0
1539627555.047,-0.488,41.504,32.227,29.785,24.414,0
1539627555.051,2.441,36.133,30.762,32.227,20.996,0
1539627555.055,16.113,34.180,31.250,9.277,125.977,0
1539627555.059,24.902,37.109,33.203,-4.395,112.793,0
1539627555.063,9.766,38.086,30.273,18.066,53.711,0
1539627555.067,5.859,37.598,30.273,29.785,94.727,0
1539627555.071,15.137,36.621,34.180,22.461,56.641,0
1539627555.074,-1.953,36.133,31.738,19.531,-14.160,0
1539627555.078,-7.324,35.156,30.273,25.391,99.121,0
1539627555.082,7.324,38.086,33.691,41.992,48.828,0
1539627555.086,21.484,41.504,35.156,36.621,-35.645,0
1539627555.090,18.066,38.574,33.691,18.555,28.809,0
1539627555.094,3.906,35.156,29.297,15.625,-16.602,0
1539627555.098,-11.230,33.691,26.367,22.461,-59.082,0
1539627555.102,1.465,33.691,29.785,29.785,-41.016,0
1539627555.106,4.395,32.227,34.668,24.414,10.742,0
1539627555.110,-8.789,33.691,33.203,24.414,0.000,0
1539627555.114,4.883,40.527,28.320,17.090,-40.527,0
1539627555.117,10.254,41.016,30.273,41.016,9.277,0
1539627555.121,9.766,36.621,33.691,30.762,55.664,0
1539627555.125,18.555,34.668,33.203,-10.254,33.691,0
1539627555.129,22.949,37.109,30.273,23.926,47.363,0
1539627555.133,21.484,39.062,32.227,35.156,69.336,0
1539627555.137,3.906,35.156,38.574,28.809,88.379,0
1539627555.141,0.488,36.133,33.203,29.785,54.688,0
1539627555.145,13.672,39.062,28.809,29.785,-18.555,0
1539627555.149,15.137,35.645,34.180,25.879,22.461,0
1539627555.153,16.113,36.133,33.203,17.578,72.266,0
1539627555.157,10.742,35.156,31.738,32.227,-24.414,0
1539627555.160,5.371,31.738,34.180,37.109,-17.578,0
1539627555.164,3.418,33.691,30.762,21.484,62.500,0
1539627555.168,20.996,33.203,22.949,20.996,55.664,0
1539627555.172,24.902,31.738,20.020,22.461,92.773,0
1539627555.176,2.441,33.691,29.297,25.879,65.430,0
1539627555.180,-9.766,33.203,36.621,19.531,5.371,0
1539627555.184,-4.883,30.762,33.203,15.625,22.461,0
1539627555.188,18.066,31.738,32.715,20.508,86.914,0
1539627555.192,24.902,31.738,36.133,33.691,39.551,0
1539627555.196,29.785,33.203,35.645,46.387,9.277,0
1539627555.199,22.461,37.598,32.715,15.625,40.039,0
1539627555.203,-1.465,35.156,34.180,8.301,7.812,0
1539627555.207,-3.418,37.109,34.180,32.227,9.277,0
1539627555.211,20.508,39.062,29.785,33.691,64.453,0
1539627555.215,14.648,33.691,30.273,33.203,41.504,0
1539627555.219,17.090,34.668,30.762,31.738,1.465,0
1539627555.223,50.781,42.969,26.367,32.227,35.645,0
1539627555.227,51.758,40.039,34.668,30.762,21.484,0
1539627555.231,39.551,30.273,44.922,23.926,26.855,0
1539627555.235,11.719,27.832,40.039,25.391,34.668,0
1539627555.239,4.395,27.832,39.551,34.668,34.180,0
1539627555.242,8.789,27.344,42.969,29.297,51.758,0
1539627555.246,-0.488,32.227,37.598,21.973,15.137,0
1539627555.250,1.953,36.133,34.180,17.578,-8.789,0
1539627555.254,3.418,33.691,33.691,14.160,35.645,0
1539627555.258,-9.277,29.297,33.691,16.113,48.828,0
1539627555.262,-16.113,28.809,33.203,15.625,44.922,0
1539627555.266,-3.418,33.203,32.715,16.113,39.551,0
1539627555.270,6.836,28.809,34.668,21.973,5.371,0
1539627555.274,8.789,25.391,31.738,12.695,35.645,0
1539627555.278,9.277,30.762,27.344,5.859,8.301,0
1539627555.282,12.695,31.738,28.809,16.602,-4.883,0
1539627555.285,18.555,28.320,33.691,12.207,29.785,0
1539627555.289,23.438,31.250,34.668,18.066,9.766,0
1539627555.293,20.996,32.227,31.250,19.043,-32.227,0
1539627555.297,20.996,32.227,33.691,41.016,-20.020,0
1539627555.301,20.996,34.180,36.621,41.504,6.348,0
1539627555.305,17.578,34.668,35.645,3.906,79.102,0
1539627555.309,14.160,35.645,34.668,21.484,53.711,0
1539627555.313,13.672,34.668,33.691,27.832,-5.371,0
1539627555.317,10.742,31.250,34.180,14.160,17.090,0
1539627555.321,20.020,31.738,33.203,20.996,23.926,0
1539627555.324,24.414,33.203,31.250,39.062,8.301,1
1539627555.328,13.184,34.180,29.297,21.973,52.246,0
1539627555.332,18.066,37.109,32.227,6.348,87.402,0
1539627555.336,21.973,35.156,36.621,20.020,36.621,0
1539627555.340,16.602,37.109,34.668,23.438,40.039,0
1539627555.344,5.859,37.109,34.668,20.996,26.367,0
1539627555.348,-19.043,28.809,38.086,9.277,-3.418,0
1539627555.352,-12.695,25.879,34.180,17.090,65.430,0
1539627555.356,9.277,29.785,30.273,18.066,65.918,0
1539627555.360,5.371,30.762,33.203,20.508,64.453,0
1539627555.364,8.789,30.273,37.109,36.133,34.180,0
1539627555.367,14.160,35.156,38.086,31.250,-32.715,0
1539627555.371,3.418,38.574,37.598,22.461,-9.766,0
1539627555.375,6.836,38.086,32.227,25.879,70.801,0
1539627555.379,18.555,35.645,29.785,36.621,49.316,0
1539627555.383,7.324,32.715,33.203,24.902,-15.137,0
1539627555.387,7.324,31.250,38.086,27.344,23.438,0
1539627555.391,3.418,30.273,39.062,29.785,1.465,0
1539627555.395,-1.465,32.715,36.133,22.949,17.090,0
1539627555.399,17.090,36.133,40.039,33.691,17.578,0
1539627555.403,22.461,35.156,43.457,36.621,47.852,0
1539627555.407,34.668,32.715,41.016,54.688,105.469,0
1539627555.410,37.598,28.809,38.574,39.062,67.383,0
1539627555.414,21.484,30.762,37.109,17.578,53.223,0
1539627555.418,10.742,38.574,30.273,28.809,71.777,0
1539627555.422,7.812,39.062,32.227,22.461,88.867,0
1539627555.426,3.906,41.016,33.203,26.367,95.703,0
1539627555.430,0.488,38.574,33.203,22.461,56.641,0
1539627555.434,-3.906,36.133,32.715,4.395,19.531,0
1539627555.438,3.418,41.016,27.344,18.066,16.602,0
1539627555.442,14.160,41.016,30.273,32.715,-22.949,0
1539627555.446,5.371,41.992,33.691,37.109,-9.277,0
1539627555.449,-5.371,42.480,32.715,29.297,4.883,0
1539627555.453,8.789,42.969,30.762,27.344,20.020,0
1539627555.457,24.902,40.527,37.109,37.598,36.621,0
1539627555.461,24.902,37.109,40.527,10.254,31.738,0
1539627555.465,20.020,41.016,40.039,2.441,29.297,0
1539627555.469,6.348,42.969,34.668,17.578,33.203,0
1539627555.473,10.742,40.039,30.762,21.484,7.324,0
1539627555.477,11.230,37.598,34.668,24.414,5.371,0
1539627555.481,-2.930,38.574,33.691,38.086,13.184,0
1539627555.485,-3.418,37.109,30.273,16.113,0.977,0
1539627555.489,10.742,35.645,29.785,-8.789,-34.668,0
1539627555.492,17.090,37.109,29.785,15.625,-28.320,0
1539627555.496,14.160,34.180,30.273,25.391,41.016,0
1539627555.500,15.137,30.273,28.809,20.508,63.965,0
1539627555.504,13.672,32.227,28.320,31.250,21.484,0
1539627555.508,4.395,38.086,28.809,23.926,-27.832,0
1539627555.512,-0.977,39.062,31.250,14.648,27.832,0
1539627555.516,-11.230,36.621,34.668,29.785,112.305,0
1539627555.520,-16.113,38.086,33.203,16.602,50.781,0
1539627555.524,9.766,41.504,32.715,12.207,18.066,0
1539627555.528,20.508,38.086,33.691,26.855,38.574,0
1539627555.532,14.648,33.203,35.645,15.137,11.719,0
1539627555.535,0.977,34.180,38.574,14.160,61.523,0
1539627555.539,-1.465,36.621,33.691,27.832,14.648,0
1539627555.543,-2.441,36.133,31.738,28.809,-31.250,0
1539627555.547,6.836,35.645,34.180,25.879,8.789,0
1539627555.551,6.348,39.062,35.156,34.180,2.930,0
1539627555.555,-8.789,35.645,30.762,13.184,13.672,0
1539627555.559,-2.441,29.297,31.738,1.953,9.766,0
1539627555.563,9.277,29.785,33.691,8.789,35.645,0
1539627555.567,-1.953,30.762,34.180,3.906,63.965,0
1539627555.571,-6.348,33.691,30.273,15.137,38.086,0
1539627555.574,3.418,40.039,25.391,26.367,12.207,0
1539627555.578,26.855,42.969,31.738,28.320,-8.789,0
1539627555.582,32.227,40.527,35.645,20.996,25.391,0
1539627555.586,18.066,35.645,32.715,20.020,59.570,0
1539627555.590,2.930,34.180,33.691,25.391,52.246,0
1539627555.594,10.254,37.109,34.180,31.738,42.969,0
1539627555.598,28.809,41.016,29.297,15.137,34.668,0
1539627555.602,13.672,39.551,28.320,6.348,14.648,0
1539627555.606,17.578,39.062,32.715,13.672,18.066,0
1539627555.610,16.602,39.551,31.738,12.207,53.223,0
1539627555.614,-0.488,37.109,28.809,13.672,34.668,0
1539627555.617,9.766,34.668,35.156,15.625,12.695,0
1539627555.621,16.113,34.180,39.062,22.461,42.480,0
1539627555.625,23.926,37.109,33.203,18.555,52.734,0
1539627555.629,34.180,36.621,33.691,18.555,67.871,0
1539627555.633,18.555,36.133,34.180,31.250,44.922,0
1539627555.637,4.395,39.062,33.691,43.945,52.734,0
1539627555.641,17.090,43.457,39.551,41.016,55.176,0
1539627555.645,34.668,44.922,34.668,36.133,-20.508,0
1539627555.649,43.457,39.551,31.738,48.828,19.043,0
1539627555.653,33.691,31.738,40.527,40.039,76.660,0
1539627555.657,29.297,31.738,41.992,50.293,91.309,0
1539627555.660,16.113,31.738,44.434,62.012,67.871,0
1539627555.664,-8.301,28.320,47.363,20.508,91.797,0
1539627555.668,8.789,31.738,36.621,23.926,46.387,0
1539627555.672,31.250,34.180,36.133,37.598,14.648,0
1539627555.676,20.996,34.180,37.598,31.250,17.090,0
1539627555.680,4.883,30.762,37.109,30.273,2.930,0
1539627555.684,1.465,26.855,45.898,30.762,40.527,0
1539627555.688,1.465,25.391,47.852,27.344,24.414,0
1539627555.692,12.207,26.367,39.062,16.602,3.906,0
1539627555.696,11.230,27.832,34.180,29.785,-12.207,0
1539627555.699,-7.324,26.367,37.598,32.227,-40.527,0
1539627555.703,-8.301,29.785,39.062,22.461,-36.133,0
1539627555.707,-0.488,30.273,38.574,25.879,74.707,0
1539627555.711,-1.465,28.809,34.668,21.973,128.418,0
1539627555.715,2.441,28.320,30.762,40.039,59.570,0
1539627555.719,11.230,29.785,34.180,45.898,10.742,0
1539627555.723,20.508,35.156,33.203,19.043,28.320,0
1539627555.727,17.578,36.133,29.297,22.949,11.719,0
1539627555.731,27.832,37.598,33.203,40.527,66.895,0
1539627555.735,40.039,37.109,31.250,30.273,105.957,0
1539627555.739,42.969,34.668,29.297,31.738,14.648,0
1539627555.742,27.832,32.715,39.062,37.109,14.160,0
1539627555.746,16.113,31.738,42.480,29.785,31.738,0
1539627555.750,6.348,29.297,35.645,33.691,25.879,0
1539627555.754,0.000,26.855,35.156,24.902,28.809,0
1539627555.758,20.996,29.297,37.598,22.949,74.219,0
1539627555.762,7.324,26.855,37.598,20.020,79.590,0
1539627555.766,-7.324,26.367,43.945,31.250,35.645,0
1539627555.770,-8.789,25.879,43.945,44.922,77.637,0
1539627555.774,-10.254,25.879,36.621,4.883,84.961,0
1539627555.778,-7.812,27.832,34.180,6.836,41.992,0
1539627555.782,-2.930,28.809,30.762,38.574,35.645,0
1539627555.785,6.348,29.785,32.227,29.785,40.527,0
1539627555.789,24.902,34.668,34.668,35.645,84.961,0
1539627555.793,24.902,32.715,31.738,27.344,27.832,0
1539627555.797,2.441,27.832,34.180,23.438,2.441,0
1539627555.801,-4.883,30.273,41.504,43.945,28.809,0
1539627555.805,2.930,32.227,40.527,22.949,-28.809,0
1539627555.809,15.137,35.645,33.691,17.090,2.930,0
1539627555.813,30.273,38.086,37.109,37.598,47.363,0
1539627555.817,27.344,35.156,40.527,50.293,4.883,0
1539627555.821,8.789,34.180,40.527,41.016,20.996,0
1539627555.824,0.488,35.645,41.016,19.043,43.457,0
1539627555.828,10.254,38.574,41.992,19.043,4.883,0
1539627555.832,0.000,38.574,40.527,14.160,53.711,0
1539627555.836,-9.277,38.574,37.109,18.066,81.543,0
1539627555.840,6.348,42.969,28.809,8.301,30.762,0
1539627555.844,6.348,46.875,25.391,-7.324,42.969,0
1539627555.848,2.441,48.828,26.855,-7.324,88.867,0
1539627555.852,-4.395,49.805,22.949,-15.625,96.680,0
1539627555.856,-6.836,62.012,25.391,-18.066,104.492,0
1539627555.860,4.883,58.594,23.438,-28.320,77.637,0
1539627555.864,-4.883,49.316,19.531,-36.621,2.441,0
1539627555.867,-19.043,53.711,22.461,-34.180,-15.625,0
1539627555.871,-22.461,57.129,20.020,-31.738,-1.953,0
1539627555.875,-33.691,61.035,16.113,-25.879,17.090,0
1539627555.879,-53.711,57.129,17.090,-14.648,14.160,0
1539627555.883,-51.758,52.246,20.020,-20.508,9.277,0
1539627555.887,-56.641,49.805,20.508,-25.391,-4.883,0
1539627555.891,-68.359,49.316,20.508,-19.531,0.488,0
1539627555.895,-61.035,50.293,21.484,-29.785,34.180,0
1539627555.899,-43.457,48.340,20.996,-31.738,49.805,0
1539627555.903,-48.340,53.711,17.090,-36.621,-20.508,0
1539627555.907,-51.270,56.641,18.066,-29.785,-40.527,0
1539627555.910,-36.133,48.828,20.508,-12.207,38.086,0
1539627555.914,-35.156,43.945,21.973,0.977,64.453,0
1539627555.918,-15.625,45.898,23.926,20.020,13.184,0
1539627555.922,0.488,45.898,26.367,14.648,67.871,0
1539627555.926,-5.859,42.969,32.715,14.648,126.465,0
1539627555.930,-11.230,41.504,34.668,28.320,88.379,0
1539627555.934,0.000,39.062,33.203,22.461,41.016,0
1539627555.938,15.625,39.551,37.598,19.043,10.742,0
1539627555.942,33.691,40.527,34.668,28.809,-13.672,0
1539627555.946,31.250,37.598,32.227,25.391,-6.836,0
1539627555.949,35.645,38.086,36.133,20.996,38.086,0
1539627555.953,40.527,38.574,31.738,30.273,35.156,0
1539627555.957,27.832,33.203,31.738,37.109,47.363,0
1539627555.961,17.090,31.738,35.156,40.039,69.824,0
1539627555.965,15.137,32.715,36.133,39.551,52.734,0
1539627555.969,15.625,32.227,41.504,38.574,67.871,0
1539627555.973,23.926,33.691,38.574,40.039,42.480,0
1539627555.977,41.016,29.785,35.156,38.574,4.395,0
1539627555.981,31.738,27.344,41.992,41.504,20.508,0
1539627555.985,32.227,32.227,40.039,43.945,49.805,0
1539627555.989,21.973,31.250,36.133,36.621,25.879,0
1539627555.992,14.648,27.832,38.574,24.902,-9.277,0
1539627555.996,16.113,25.391,36.133,24.902,54.199,0
1539627556.000,1.465,27.832,35.156,33.691,79.102,0
1539627556.004,8.301,28.809,41.016,24.414,63.965,0
1539627556.008,19.043,28.809,40.527,20.996,88.379,0
1539627556.012,32.227,31.250,32.227,35.645,62.500,0
1539627556.016,41.504,34.180,32.227,38.086,57.129,0
1539627556.020,22.461,30.762,39.551,40.039,60.059,0
1539627556.024,11.719,31.738,37.109,31.738,23.926,0
1539627556.028,24.902,31.738,36.133,31.738,-6.348,0
1539627556.032,34.668,27.344,40.039,49.805,-44.434,0
1539627556.035,39.551,29.297,35.645,57.129,-4.395,0
1539627556.039,32.715,31.738,31.738,50.781,49.316,0
1539627556.043,28.320,29.297,38.086,41.016,40.527,0
1539627556.047,14.648,27.832,39.551,30.273,46.875,0
1539627556.051,14.160,28.320,34.180,27.832,38.574,0
1539627556.055,41.016,28.809,35.645,46.387,40.039,0
1539627556.059,34.668,32.715,37.598,31.250,35.645,0
1539627556.063,18.066,32.227,34.180,23.926,-0.488,0
1539627556.067,30.273,29.297,35.156,30.273,1.465,0
1539627556.071,27.832,29.785,37.598,24.414,-2.441,0
1539627556.074,15.137,33.203,33.691,46.875,33.203,0
