timestamps,TP9,AF7,AF8,TP10,Right AUX,Marker0
1539629012.024,37.598,39.551,31.738,6.836,55.664,1
1539629012.028,36.621,37.109,29.297,3.418,47.852,0
1539629012.032,29.785,34.180,32.227,9.766,68.848,0
1539629012.035,21.973,33.203,32.715,12.695,43.457,0
1539629012.039,28.809,34.180,35.645,13.184,-15.625,0
1539629012.043,29.297,28.809,38.086,13.672,-13.672,0
1539629012.047,34.668,25.391,32.227,8.789,43.457,0
1539629012.051,32.715,31.250,35.645,5.859,59.082,0
1539629012.055,11.230,34.180,42.969,8.789,3.418,0
1539629012.059,21.973,29.297,42.969,14.648,63.965,0
1539629012.063,28.809,23.926,37.598,8.789,41.504,0
1539629012.067,23.926,17.578,34.668,0.977,-25.391,0
1539629012.071,26.367,17.090,36.133,2.441,37.109,0
1539629012.074,20.996,24.902,34.180,0.488,12.695,0
1539629012.078,27.832,25.879,34.668,2.930,-14.160,0
1539629012.082,29.297,24.902,39.551,9.277,-1.465,0
1539629012.086,25.391,22.461,44.434,10.254,-9.277,0
1539629012.090,30.273,21.484,47.852,13.184,-2.441,0
1539629012.094,35.156,22.461,45.898,13.184,55.176,0
1539629012.098,27.344,19.043,43.457,3.418,82.520,0
1539629012.102,26.367,18.066,41.992,6.836,73.242,0
1539629012.106,32.715,24.902,38.086,19.043,78.613,0
1539629012.110,31.738,30.273,37.598,9.277,64.453,0
1539629012.114,28.320,27.832,37.598,-1.953,72.266,0
1539629012.117,24.902,29.297,34.180,3.418,88.379,0
1539629012.121,34.180,29.297,28.809,8.789,95.703,0
1539629012.125,36.133,28.320,34.180,8.789,42.969,0
1539629012.129,31.250,23.438,41.504,3.906,-12.207,0
1539629012.133,32.715,18.066,33.691,5.859,30.273,0
1539629012.137,32.227,22.461,33.203,19.531,61.035,0
1539629012.141,33.691,29.297,38.574,11.719,37.598,0
1539629012.145,27.344,30.273,38.574,12.207,39.062,0
1539629012.149,28.809,26.367,35.645,15.625,48.828,0
1539629012.153,33.203,29.785,36.133,10.254,32.227,0
1539629012.157,30.762,31.250,40.527,13.184,12.695,0
1539629012.160,36.133,27.344,38.574,6.348,20.508,0
1539629012.164,31.738,27.344,38.574,8.789,9.277,0
1539629012.168,19.043,28.809,39.551,8.789,17.578,0
1539629012.172,22.461,24.902,34.180,0.977,51.270,0
1539629012.176,37.109,25.391,33.691,5.371,-3.418,0
1539629012.180,37.598,24.414,33.203,7.324,-36.133,0
1539629012.184,32.715,24.414,33.691,10.254,15.137,0
1539629012.188,30.273,27.832,35.156,0.000,65.918,0
1539629012.192,25.391,30.273,31.738,-7.324,85.449,0
1539629012.196,23.926,33.203,32.227,0.977,54.688,0
1539629012.199,22.461,25.391,33.691,1.953,62.500,0
1539629012.203,27.832,25.391,33.691,1.953,73.242,0
1539629012.207,31.738,33.203,34.180,-0.488,14.160,0
1539629012.211,25.879,31.250,41.504,-1.953,13.672,0
1539629012.215,17.090,32.227,45.410,5.371,22.949,0
1539629012.219,24.414,31.250,39.551,2.441,9.766,0
1539629012.223,36.621,27.832,41.016,3.418,23.438,0
1539629012.227,37.109,32.715,46.387,0.977,62.012,0
1539629012.231,32.715,35.645,52.246,-4.395,42.969,0
1539629012.235,25.391,29.297,52.734,-8.789,4.883,0
1539629012.239,24.902,27.832,50.293,-6.348,23.926,0
1539629012.242,30.273,29.785,48.828,2.441,27.344,0
1539629012.246,25.391,27.832,47.363,5.371,24.414,0
1539629012.250,20.508,28.809,43.457,4.883,22.949,0
1539629012.254,18.066,34.180,40.527,-1.465,26.367,0
1539629012.258,31.738,32.227,43.945,7.812,40.039,0
1539629012.262,41.504,25.879,45.898,22.461,-1.953,0
1539629012.266,39.062,25.879,43.945,15.137,43.945,0
1539629012.270,34.180,29.297,44.922,-1.465,87.402,0
1539629012.274,17.090,31.250,48.828,-7.324,21.484,0
1539629012.278,16.113,36.133,47.852,-8.789,-39.062,0
1539629012.282,23.438,41.504,42.480,0.488,-26.855,0
1539629012.285,34.180,42.969,40.527,3.906,19.043,0
1539629012.289,39.551,39.551,41.992,7.324,50.781,0
1539629012.293,35.156,35.156,45.898,12.695,72.754,0
1539629012.297,36.621,34.668,46.875,11.719,25.391,0
1539629012.301,38.574,36.133,44.434,16.602,-18.555,0
1539629012.305,33.691,37.109,42.969,18.555,-14.648,0
1539629012.309,37.109,37.598,44.922,18.555,-3.906,0
1539629012.313,43.945,34.668,53.711,15.137,49.316,0
1539629012.317,34.668,36.133,52.734,14.160,27.832,0
1539629012.321,31.738,36.133,45.898,13.672,-2.930,0
1539629012.324,33.691,34.668,47.852,11.719,5.859,0
1539629012.328,35.645,31.738,50.293,7.812,-1.465,0
1539629012.332,33.691,31.250,52.734,1.465,13.184,0
1539629012.336,28.320,33.691,52.246,5.859,-1.465,0
1539629012.340,23.438,29.297,48.340,10.742,9.277,0
1539629012.344,25.879,27.832,42.480,8.301,50.293,0
1539629012.348,25.879,29.785,41.504,2.930,43.457,0
1539629012.352,26.855,29.297,42.480,2.441,76.660,0
1539629012.356,32.227,29.297,41.992,1.953,60.059,0
1539629012.360,26.855,28.320,43.457,-1.465,32.715,0
1539629012.364,33.203,25.879,40.039,1.465,36.621,0
1539629012.367,30.762,28.809,40.039,4.395,23.926,0
1539629012.371,14.160,30.762,39.551,0.000,9.277,0
1539629012.375,17.578,32.227,36.621,-7.812,1.953,0
1539629012.379,24.902,28.809,41.992,-6.836,41.016,0
1539629012.383,27.832,30.273,44.434,-11.719,33.691,0
1539629012.387,21.973,28.320,47.852,-9.277,-9.766,0
1539629012.391,16.602,22.461,47.363,-7.324,1.953,0
1539629012.395,20.020,22.461,40.527,-6.348,52.246,0
1539629012.399,20.996,20.996,44.922,0.488,113.770,0
1539629012.403,16.602,22.461,48.340,1.953,125.000,0
1539629012.407,11.230,24.414,43.945,12.695,22.461,0
1539629012.410,16.113,23.926,43.945,7.324,23.926,0
1539629012.414,20.020,22.461,51.270,1.465,47.852,0
1539629012.418,17.578,24.414,51.758,7.324,58.594,0
1539629012.422,21.484,28.809,48.340,7.812,58.594,0
1539629012.426,33.691,27.344,49.316,6.348,43.457,0
1539629012.430,30.762,22.461,51.270,0.977,66.895,0
1539629012.434,31.738,21.973,49.805,14.160,77.637,0
1539629012.438,35.156,28.320,41.992,13.672,36.133,0
1539629012.442,26.855,28.320,41.504,2.930,6.348,0
1539629012.446,25.879,30.273,55.176,3.906,8.789,0
1539629012.449,26.855,32.227,51.270,7.812,-30.762,0
1539629012.453,27.832,33.691,46.387,11.719,29.297,0
1539629012.457,29.297,35.156,51.270,5.859,47.852,0
1539629012.461,32.227,34.668,51.758,-0.488,0.488,0
1539629012.465,32.715,40.527,53.223,-2.930,2.441,0
1539629012.469,38.086,38.574,55.176,11.719,70.801,0
1539629012.473,41.992,33.691,61.523,21.484,67.383,0
1539629012.477,37.598,31.250,64.941,7.324,72.266,0
1539629012.481,39.062,30.762,64.453,0.488,62.500,0
1539629012.485,34.668,35.645,62.988,13.672,-12.695,0
1539629012.489,27.832,35.156,62.988,11.230,28.320,0
1539629012.492,38.086,33.691,62.012,5.371,35.156,0
1539629012.496,41.504,33.691,58.594,5.859,-10.742,0
1539629012.500,31.250,32.227,61.035,10.742,17.090,0
1539629012.504,32.715,31.250,62.012,19.043,38.574,0
1539629012.508,31.250,27.832,64.941,0.977,19.043,0
1539629012.512,30.762,30.273,74.219,0.977,23.438,0
1539629012.516,36.621,32.227,75.195,9.277,45.898,0
1539629012.520,35.156,32.715,73.730,5.859,83.008,0
1539629012.524,32.227,32.227,73.242,2.930,107.910,0
1539629012.528,30.273,25.879,69.336,1.465,84.961,0
1539629012.532,25.879,25.391,75.195,4.883,8.789,0
1539629012.535,24.414,26.855,81.055,12.207,72.266,0
1539629012.539,29.785,28.809,81.543,16.113,78.613,0
1539629012.543,30.762,27.832,89.844,11.719,-6.348,0
1539629012.547,28.809,26.367,87.891,7.324,-3.418,0
1539629012.551,30.273,31.250,82.031,17.090,16.602,0
1539629012.555,28.809,33.203,84.473,14.160,17.090,0
1539629012.559,36.621,31.250,82.031,11.230,7.324,0
1539629012.563,42.969,29.785,88.379,11.719,11.719,0
1539629012.567,31.250,30.762,96.191,11.719,14.648,0
1539629012.571,23.926,33.203,97.168,17.090,47.852,0
1539629012.574,33.691,33.691,106.445,12.695,44.434,0
1539629012.578,30.762,33.691,111.328,10.254,20.508,0
1539629012.582,31.250,34.668,114.258,10.742,49.805,0
1539629012.586,35.645,33.203,115.234,12.695,42.969,0
1539629012.590,33.691,35.156,115.234,21.973,62.012,0
1539629012.594,38.086,35.156,118.164,25.879,65.430,0
1539629012.598,35.156,31.250,122.070,11.230,55.664,0
1539629012.602,30.273,30.762,122.559,8.789,27.344,0
1539629012.606,23.438,31.738,122.070,12.695,-1.953,0
1539629012.610,25.391,28.320,123.047,2.441,44.434,0
1539629012.614,35.156,31.738,118.164,4.883,44.434,0
1539629012.617,36.621,31.738,115.234,16.113,76.172,0
1539629012.621,40.039,29.785,106.934,23.438,83.008,0
1539629012.625,37.598,35.156,99.121,20.020,55.176,0
1539629012.629,31.738,36.133,97.656,7.812,66.406,0
1539629012.633,24.902,34.668,91.797,0.977,29.297,0
1539629012.637,20.020,34.180,89.355,5.859,-27.832,0
1539629012.641,20.508,31.250,83.008,6.836,-29.785,0
1539629012.645,26.855,32.715,76.660,7.812,4.883,0
1539629012.649,28.320,28.320,77.637,10.742,14.160,0
1539629012.653,23.926,22.949,76.172,7.812,-4.395,0
1539629012.657,30.273,26.855,70.312,9.766,-32.715,0
1539629012.660,35.645,33.691,67.383,4.883,-15.625,0
1539629012.664,32.227,35.156,68.359,3.906,3.906,0
1539629012.668,22.461,28.809,63.477,5.371,70.801,0
1539629012.672,17.578,27.832,56.152,-3.906,47.852,0
1539629012.676,14.648,30.762,48.828,0.977,-12.207,0
1539629012.680,15.137,28.809,38.574,5.859,-15.137,0
1539629012.684,16.602,28.809,28.809,5.859,-31.738,0
1539629012.688,16.113,28.809,24.902,11.230,56.152,0
1539629012.692,20.508,28.809,27.832,8.301,111.328,0
1539629012.696,18.555,30.273,28.809,12.695,49.316,0
1539629012.699,23.438,26.855,31.738,12.207,37.109,0
1539629012.703,23.926,24.902,27.832,1.465,65.430,0
1539629012.707,20.996,23.926,17.578,11.719,81.055,0
1539629012.711,30.273,30.273,17.090,14.160,34.668,0
1539629012.715,26.855,33.203,14.648,5.859,-7.324,0
1539629012.719,19.043,26.855,10.742,6.348,-37.598,0
1539629012.723,19.531,27.832,8.789,3.418,33.691,0
1539629012.727,22.461,29.785,7.324,-7.324,69.336,0
1539629012.731,15.137,24.902,4.395,-3.906,69.336,0
1539629012.735,17.578,25.879,-4.395,8.789,15.625,0
1539629012.739,20.020,27.832,-12.207,7.324,26.367,0
1539629012.742,20.020,28.320,-8.789,5.859,53.711,0
1539629012.746,31.250,31.250,-10.742,4.883,11.719,0
1539629012.750,26.855,31.738,-12.695,0.977,2.441,0
1539629012.754,21.973,27.832,-10.254,3.418,-0.977,0
1539629012.758,29.785,27.344,-10.742,11.719,2.930,0
1539629012.762,22.949,28.809,-7.812,5.371,-17.090,0
1539629012.766,18.066,28.320,-7.812,-0.977,17.090,0
1539629012.770,31.738,28.320,-8.789,-0.977,62.988,0
1539629012.774,25.879,30.762,-6.348,-2.441,59.082,0
1539629012.778,17.578,31.250,-7.324,1.953,14.160,0
1539629012.782,21.973,31.738,-8.301,-0.977,-17.090,0
1539629012.785,26.855,33.203,-10.742,-3.906,60.059,0
1539629012.789,33.203,34.668,-15.137,-4.883,32.227,0
1539629012.793,24.902,36.133,-14.648,-13.672,38.086,0
1539629012.797,23.926,36.133,-18.066,-9.277,36.621,0
1539629012.801,23.926,38.086,-19.531,-1.465,-8.789,0
1539629012.805,22.461,37.109,-20.508,-4.883,26.855,0
1539629012.809,27.344,30.762,-27.344,-8.789,29.785,0
1539629012.813,30.273,31.250,-22.949,1.953,48.828,0
1539629012.817,30.762,28.809,-20.508,10.254,37.598,0
1539629012.821,31.738,26.367,-24.414,8.789,31.738,0
1539629012.824,28.320,28.809,-27.344,2.441,53.711,0
1539629012.828,24.414,30.273,-28.809,3.906,36.133,0
1539629012.832,34.180,30.273,-30.273,5.371,44.922,0
1539629012.836,27.344,34.668,-28.320,0.488,33.691,0
1539629012.840,29.785,37.598,-23.926,6.348,45.898,0
1539629012.844,43.945,31.250,-24.414,8.789,51.270,0
1539629012.848,30.762,32.227,-23.438,5.859,80.566,0
1539629012.852,26.855,30.762,-23.926,9.277,87.402,0
1539629012.856,33.691,26.367,-26.855,1.953,40.527,0
1539629012.860,27.344,31.250,-24.414,5.371,21.973,0
1539629012.864,25.879,34.180,-24.902,9.766,31.250,0
1539629012.867,29.785,33.203,-22.461,3.906,30.273,0
1539629012.871,29.297,38.574,-15.137,2.441,54.688,0
1539629012.875,22.461,40.527,-17.090,2.930,67.383,0
1539629012.879,21.973,37.598,-20.508,3.906,-2.441,0
1539629012.883,25.879,37.109,-18.555,-0.488,8.301,0
1539629012.887,28.320,35.645,-20.020,-3.418,66.895,0
1539629012.891,17.578,30.762,-21.484,1.953,58.594,0
1539629012.895,9.766,29.297,-14.648,-2.441,4.395,0
1539629012.899,13.672,32.227,-7.324,-9.766,20.996,0
1539629012.903,17.578,32.715,-7.324,2.930,46.875,0
1539629012.907,21.973,30.273,-1.953,6.348,25.879,0
1539629012.910,27.832,31.250,5.371,2.441,-2.930,0
1539629012.914,30.762,35.156,2.441,2.930,19.043,0
1539629012.918,24.414,32.715,3.418,11.719,9.766,0
1539629012.922,26.855,29.297,5.371,13.184,-15.625,0
1539629012.926,28.809,35.156,-2.441,0.977,-26.367,0
1539629012.930,34.180,37.109,0.000,0.488,17.090,0
1539629012.934,41.016,37.109,8.789,7.324,38.086,0
1539629012.938,36.621,42.969,10.742,14.160,27.832,0
1539629012.942,32.227,40.039,9.766,13.184,52.246,0
1539629012.946,33.203,38.574,10.254,8.301,8.789,0
1539629012.949,39.062,40.039,13.184,18.066,8.301,0
1539629012.953,34.668,35.156,16.113,16.602,19.043,0
1539629012.957,33.203,33.203,5.371,0.977,42.969,0
1539629012.961,32.715,31.250,3.906,-1.953,35.156,0
1539629012.965,38.574,29.297,16.113,10.742,31.250,0
1539629012.969,43.457,31.250,20.996,13.672,70.312,0
1539629012.973,38.574,34.180,20.996,-2.441,56.641,0
1539629012.977,34.668,36.621,17.090,-2.441,29.785,0
1539629012.981,43.945,34.668,18.555,2.930,19.531,0
1539629012.985,47.852,32.227,23.438,-1.465,-32.715,0
1539629012.989,35.645,31.250,24.414,2.441,-3.418,0
1539629012.992,33.203,30.273,20.020,2.930,55.176,0
1539629012.996,42.969,31.738,20.996,2.441,42.969,0
1539629013.000,44.434,31.250,28.809,11.719,47.363,0
1539629013.004,33.691,27.832,27.832,6.348,7.812,0
1539629013.008,33.203,25.879,27.344,-1.953,-13.672,0
1539629013.012,37.598,26.855,26.855,-3.418,12.207,0
1539629013.016,31.250,26.855,23.926,0.977,-32.227,0
1539629013.020,27.344,25.391,27.344,0.000,-12.695,0
1539629013.024,23.926,26.367,27.344,-4.883,81.055,0
1539629013.028,26.367,24.414,26.367,-4.883,98.633,0
1539629013.032,27.344,22.949,33.203,2.930,71.777,0
1539629013.035,24.902,24.414,33.691,5.859,39.551,0
1539629013.039,19.531,22.949,29.785,1.953,31.250,0
1539629013.043,13.184,23.438,29.785,-3.906,22.461,0
1539629013.047,14.160,25.879,25.879,-6.348,52.734,0
1539629013.051,13.184,25.879,23.438,-9.766,84.473,0
1539629013.055,15.137,24.902,23.926,-7.324,88.379,0
1539629013.059,15.625,27.832,23.438,-2.930,36.621,0
1539629013.063,12.207,29.785,25.879,-5.371,37.598,0
1539629013.067,13.672,29.297,19.043,-2.930,69.824,0
1539629013.071,20.508,30.762,18.555,5.371,17.090,0
1539629013.074,20.020,27.344,26.367,7.324,22.949,0
1539629013.078,4.395,23.438,22.461,-3.906,88.867,0
1539629013.082,5.371,25.391,20.996,0.000,81.055,0
1539629013.086,11.719,25.879,23.438,4.395,68.848,0
1539629013.090,11.719,29.785,20.020,-4.395,88.379,0
1539629013.094,8.789,33.691,16.602,-5.371,46.387,0
1539629013.098,5.371,32.227,21.973,0.488,-9.766,0
1539629013.102,5.859,32.227,24.902,0.977,67.871,2
1539629013.106,11.230,29.297,19.531,-1.953,49.805,0
1539629013.110,16.602,24.902,19.043,-10.254,-44.434,0
1539629013.114,15.625,26.367,21.484,-16.602,4.395,0
1539629013.117,10.254,25.391,24.414,-5.859,17.090,0
1539629013.121,11.719,23.926,23.926,-1.465,-25.391,0
1539629013.125,9.766,24.902,20.996,-5.371,20.996,0
1539629013.129,19.043,23.926,30.762,12.207,76.172,0
1539629013.133,34.180,26.855,32.715,21.973,74.219,0
1539629013.137,15.137,33.203,16.602,-5.371,-11.719,0
1539629013.141,-3.418,37.598,13.672,-20.996,-19.531,0
1539629013.145,9.277,38.086,21.484,-15.137,41.504,0
1539629013.149,8.301,35.156,24.414,-11.719,51.758,0
1539629013.153,3.418,33.203,25.879,-12.207,103.516,0
1539629013.157,6.348,32.715,28.320,-11.719,48.340,0
1539629013.160,5.371,38.086,28.320,-12.695,8.301,0
1539629013.164,10.254,35.156,28.320,-10.254,32.227,0
1539629013.168,15.625,27.344,26.367,-12.207,38.574,0
1539629013.172,20.020,29.297,28.320,-9.277,58.105,0
1539629013.176,29.785,30.762,34.180,-0.488,5.859,0
1539629013.180,25.391,27.832,31.250,3.418,26.367,0
1539629013.184,23.438,30.273,24.902,0.977,37.109,0
1539629013.188,27.832,34.668,24.414,9.766,0.977,0
1539629013.192,24.902,32.715,26.855,12.695,19.043,0
1539629013.196,36.133,32.227,26.367,8.301,39.551,0
1539629013.199,41.016,36.621,22.461,14.160,33.203,0
1539629013.203,35.645,37.598,22.949,13.672,22.461,0
1539629013.207,43.457,33.203,27.832,7.812,28.320,0
1539629013.211,38.086,27.344,30.762,-0.977,20.020,0
1539629013.215,24.902,29.297,29.297,10.742,-5.859,0
1539629013.219,26.367,31.738,24.414,22.461,-8.301,0
1539629013.223,28.320,33.203,27.344,16.602,31.250,0
1539629013.227,22.949,36.621,30.762,11.230,58.105,0
1539629013.231,23.438,36.621,24.902,-1.465,28.320,0
1539629013.235,31.738,35.645,20.020,-2.441,7.812,0
1539629013.239,25.391,37.109,21.484,3.418,51.758,0
1539629013.242,20.020,37.598,16.602,2.441,30.273,0
1539629013.246,26.367,38.086,19.043,2.441,30.762,0
1539629013.250,20.996,37.598,30.273,3.906,73.730,0
1539629013.254,17.090,39.062,39.062,11.719,19.531,0
1539629013.258,29.297,40.039,37.109,15.137,31.738,0
1539629013.262,36.133,36.621,33.203,14.160,42.969,0
1539629013.266,40.527,36.621,37.109,17.090,4.395,0
1539629013.270,36.621,37.109,37.109,4.883,61.035,0
1539629013.274,36.133,39.062,36.133,2.930,102.051,0
1539629013.278,42.480,41.016,37.598,18.066,64.941,0
1539629013.282,34.180,35.645,35.645,20.020,33.203,0
1539629013.285,31.738,34.180,32.715,18.555,10.742,0
1539629013.289,28.320,36.133,33.203,27.344,38.574,0
1539629013.293,29.785,30.273,29.785,24.902,61.035,0
1539629013.297,29.297,24.414,30.273,7.324,-11.719,0
1539629013.301,20.508,24.414,31.738,7.324,-47.363,0
1539629013.305,21.973,27.344,26.855,12.207,-28.320,0
1539629013.309,31.250,30.273,20.996,7.812,26.367,0
1539629013.313,28.320,29.785,20.508,3.906,45.898,0
1539629013.317,29.297,33.203,21.973,3.418,35.156,0
1539629013.321,40.039,33.691,19.531,10.254,49.316,0
1539629013.324,28.320,25.879,24.414,9.277,32.715,0
1539629013.328,19.531,23.438,23.926,0.488,52.734,0
1539629013.332,20.996,24.902,19.531,-3.418,87.891,0
1539629013.336,23.926,27.344,20.508,5.859,61.035,0
1539629013.340,26.855,27.344,20.508,10.254,-2.441,0
1539629013.344,28.809,29.785,27.344,8.301,7.812,0
1539629013.348,20.996,31.738,26.855,11.719,31.250,0
1539629013.352,20.508,24.414,18.555,9.277,26.855,0
1539629013.356,21.484,23.438,20.020,3.418,53.223,0
1539629013.360,20.508,23.438,25.879,-5.371,37.598,0
1539629013.364,20.996,21.973,22.949,2.930,57.129,0
1539629013.367,17.578,28.809,15.625,14.160,35.156,0
1539629013.371,23.926,27.344,16.602,5.859,-25.879,0
1539629013.375,23.438,24.414,24.414,9.277,27.832,0
1539629013.379,27.344,27.344,22.949,10.742,58.594,0
1539629013.383,24.902,26.855,22.461,14.648,4.395,0
1539629013.387,14.648,27.832,20.508,19.531,44.434,0
1539629013.391,19.043,28.320,17.578,14.648,52.734,0
1539629013.395,25.391,24.414,21.484,14.160,25.879,0
1539629013.399,24.902,25.391,23.438,22.461,31.738,0
1539629013.403,22.461,27.344,23.438,20.996,49.805,0
1539629013.407,25.879,27.344,22.461,13.672,73.730,0
1539629013.410,24.902,28.809,23.438,20.996,57.129,0
1539629013.414,31.738,27.344,19.043,20.996,69.824,0
1539629013.418,29.785,31.738,15.137,14.160,85.449,0
1539629013.422,31.738,38.086,14.648,21.484,41.016,0
1539629013.426,37.598,40.527,24.414,21.484,-6.348,0
1539629013.430,36.621,39.062,29.297,12.695,16.602,0
1539629013.434,31.738,35.645,20.508,17.578,19.043,0
1539629013.438,18.066,34.668,20.996,13.672,22.461,0
1539629013.442,28.320,39.062,26.855,5.371,51.758,0
1539629013.446,38.086,41.992,28.809,3.906,40.527,0
1539629013.449,20.996,36.621,24.902,1.465,17.578,0
1539629013.453,26.367,32.715,25.391,1.953,-13.672,0
1539629013.457,25.879,37.598,25.391,4.883,-4.395,0
1539629013.461,17.578,38.086,23.438,6.348,20.508,0
1539629013.465,21.973,33.203,27.344,-3.906,-0.977,0
1539629013.469,22.949,37.598,35.645,-0.977,28.320,0
1539629013.473,31.738,40.039,38.086,12.207,18.555,0
1539629013.477,36.621,34.180,29.297,13.672,-16.113,0
1539629013.481,31.250,33.691,29.785,9.277,41.016,0
1539629013.485,29.785,37.109,33.691,4.395,42.969,0
1539629013.489,24.902,40.527,34.668,6.836,-27.832,0
1539629013.492,28.320,41.504,42.969,13.184,-41.504,0
1539629013.496,32.715,40.527,41.992,17.090,-17.090,0
1539629013.500,26.855,40.039,40.039,13.672,50.293,0
1539629013.504,27.344,38.086,37.598,11.719,21.484,0
1539629013.508,29.785,40.527,39.062,15.625,-20.996,0
1539629013.512,27.344,41.992,46.875,12.207,40.039,0
1539629013.516,26.367,35.645,46.387,10.742,48.828,0
1539629013.520,37.598,34.180,40.039,16.113,15.137,0
1539629013.524,38.574,38.086,40.039,14.160,34.668,0
1539629013.528,35.156,36.621,44.434,22.949,12.207,0
1539629013.532,43.945,38.086,44.434,22.949,-17.578,0
1539629013.535,34.180,39.551,49.805,16.602,-1.465,0
1539629013.539,31.738,38.574,56.152,17.090,-11.719,0
1539629013.543,37.109,38.086,44.922,13.672,-12.207,0
1539629013.547,26.855,33.203,38.574,13.672,22.949,0
1539629013.551,26.367,30.273,42.969,9.766,36.621,0
1539629013.555,35.156,30.273,47.363,0.000,62.012,0
1539629013.559,30.762,31.738,50.293,-3.418,70.312,0
1539629013.563,26.367,34.668,48.828,2.441,56.641,0
1539629013.567,24.414,33.691,49.805,1.465,50.293,0
1539629013.571,25.879,30.762,52.246,0.000,59.082,0
1539629013.574,34.668,33.203,50.293,3.906,72.266,0
1539629013.578,41.992,36.133,58.105,13.672,74.707,0
1539629013.582,36.621,37.598,62.988,21.484,43.945,0
1539629013.586,8.789,38.086,52.246,-8.301,13.672,0
1539629013.590,-0.488,38.574,45.898,-31.738,49.316,0
1539629013.594,10.742,36.621,48.340,-20.996,44.434,0
1539629013.598,7.812,28.809,50.781,-17.090,67.871,0
1539629013.602,8.789,27.344,46.875,-20.020,105.469,0
1539629013.606,9.766,30.762,43.457,-21.973,52.246,0
1539629013.610,7.812,32.227,44.434,-24.414,37.598,0
1539629013.614,9.766,31.250,41.992,-9.277,67.383,0
1539629013.617,17.090,31.738,37.598,-0.488,65.918,0
1539629013.621,38.574,28.320,36.621,0.488,11.719,0
1539629013.625,39.551,30.762,43.945,-3.418,0.488,0
1539629013.629,23.926,37.109,42.969,-5.371,-1.953,0
1539629013.633,24.414,34.668,39.551,-3.418,-4.395,0
1539629013.637,25.391,38.086,44.434,-1.953,0.488,0
1539629013.641,30.762,41.504,46.875,-2.441,-10.254,0
1539629013.645,28.809,33.691,47.852,-6.836,-7.812,0
1539629013.649,31.250,35.645,45.410,-8.301,37.109,0
1539629013.653,31.250,41.016,41.016,-2.441,70.312,0
1539629013.657,23.926,36.621,47.363,-3.418,12.207,0
1539629013.660,29.297,35.156,55.176,-4.883,-13.184,0
1539629013.664,29.785,33.691,49.805,-3.418,-6.836,0
1539629013.668,35.156,30.762,52.246,-2.930,26.367,0
1539629013.672,29.785,29.785,58.594,8.789,47.363,0
1539629013.676,21.973,30.762,57.129,13.184,37.109,0
1539629013.680,33.203,30.273,53.223,7.324,59.082,0
1539629013.684,28.320,29.785,50.781,15.137,29.785,0
1539629013.688,20.020,26.367,52.734,11.230,8.789,0
1539629013.692,20.996,24.414,56.641,6.348,32.715,0
1539629013.696,27.832,27.832,58.594,12.695,82.031,0
1539629013.699,20.508,27.344,59.570,13.672,77.637,0
1539629013.703,18.555,26.855,58.105,13.672,24.414,0
1539629013.707,18.555,29.297,57.617,14.648,52.734,0
1539629013.711,23.926,29.297,52.734,9.277,51.758,0
1539629013.715,21.973,31.250,48.828,4.395,30.273,0
1539629013.719,0.488,31.250,50.781,2.441,58.594,0
1539629013.723,4.883,26.855,47.363,-3.906,53.223,0
1539629013.727,7.324,25.391,44.922,2.441,-41.016,0
1539629013.731,13.672,28.320,51.758,1.953,-44.434,0
1539629013.735,11.230,30.762,54.199,-2.441,21.973,0
1539629013.739,5.859,30.762,53.223,9.766,42.969,0
1539629013.742,16.113,31.738,48.828,3.906,64.941,0
1539629013.746,17.578,35.156,45.410,-1.953,79.590,0
1539629013.750,15.137,33.203,49.316,0.977,75.195,0
1539629013.754,14.648,28.320,49.316,1.953,38.574,0
1539629013.758,15.625,26.367,45.410,3.906,-0.488,0
1539629013.762,12.695,27.344,42.969,0.977,10.742,0
1539629013.766,24.414,26.367,53.223,4.395,27.344,0
1539629013.770,32.227,26.855,60.059,3.418,47.852,0
1539629013.774,17.090,28.320,57.129,0.977,48.828,0
1539629013.778,16.602,26.367,49.805,5.371,30.762,0
1539629013.782,27.832,32.715,49.316,3.906,9.277,0
1539629013.785,23.438,34.668,49.316,3.906,-23.926,0
1539629013.789,25.879,32.227,49.316,10.742,28.320,0
1539629013.793,32.715,31.250,50.293,11.719,55.176,0
1539629013.797,27.832,30.762,42.480,7.812,28.320,0
1539629013.801,23.926,32.715,39.062,10.254,25.391,0
1539629013.805,28.809,29.297,41.016,11.719,5.859,0
1539629013.809,36.133,28.320,33.691,10.254,-35.645,0
1539629013.813,29.785,30.762,32.715,9.766,-51.758,0
1539629013.817,20.508,32.715,37.109,14.648,-3.418,0
1539629013.821,28.809,35.156,33.691,20.508,16.602,0
1539629013.824,38.086,33.691,32.227,20.996,13.184,0
1539629013.828,37.598,32.227,27.832,15.625,3.418,0
1539629013.832,41.992,37.598,22.461,15.625,0.488,0
1539629013.836,39.551,35.156,22.461,21.484,49.316,0
1539629013.840,41.016,28.809,28.320,10.254,38.574,0
1539629013.844,42.480,30.762,36.133,6.836,20.508,0
1539629013.848,37.109,27.832,35.645,19.531,44.434,0
1539629013.852,37.109,24.414,37.598,20.996,-17.090,0
1539629013.856,43.945,32.227,36.621,20.020,-43.457,0
1539629013.860,46.875,36.621,35.645,20.508,-56.641,0
1539629013.864,41.992,34.180,41.504,20.020,-14.648,0
1539629013.867,38.574,33.203,39.062,22.949,5.859,0
1539629013.871,33.691,30.273,38.574,17.090,-0.488,0
1539629013.875,38.574,29.785,43.945,12.695,4.883,0
1539629013.879,37.109,31.250,46.875,7.812,8.301,0
1539629013.883,35.156,31.250,53.223,5.859,44.922,0
1539629013.887,30.273,28.809,50.293,5.859,77.148,0
1539629013.891,28.320,28.809,47.363,6.348,102.051,0
1539629013.895,34.180,23.438,48.828,4.883,46.387,0
1539629013.899,24.414,19.043,41.504,4.395,69.336,0
1539629013.903,22.949,23.438,39.062,5.371,65.918,0
1539629013.907,26.855,29.785,39.551,3.418,0.977,0
1539629013.910,25.879,32.715,48.828,5.371,56.152,0
1539629013.914,24.414,28.809,50.781,10.254,72.266,0
1539629013.918,28.320,28.320,48.828,6.348,35.156,0
1539629013.922,26.855,28.320,52.246,16.113,72.266,0
1539629013.926,21.484,27.832,49.805,20.020,116.211,0
1539629013.930,22.949,26.367,48.340,5.371,101.074,0
1539629013.934,21.484,27.344,49.316,0.977,53.711,0
1539629013.938,32.227,28.320,42.480,1.953,52.246,0
1539629013.942,32.715,27.832,41.992,8.301,79.102,0
1539629013.946,20.996,31.738,49.316,10.742,89.355,0
1539629013.949,23.926,30.762,55.176,10.742,66.406,0
1539629013.953,19.043,25.879,56.641,12.207,33.691,0
1539629013.957,24.902,26.855,48.828,11.719,-9.277,0
1539629013.961,27.344,30.273,44.434,15.625,12.207,0
1539629013.965,23.438,29.297,46.875,9.766,0.488,0
1539629013.969,26.855,31.738,44.434,9.766,-31.250,0
1539629013.973,25.879,35.156,45.898,6.348,20.020,0
1539629013.977,25.879,40.039,41.504,0.000,42.969,0
1539629013.981,32.227,41.016,38.086,7.812,0.977,0
1539629013.985,27.832,34.668,44.922,9.277,-8.789,0
1539629013.989,24.902,38.086,47.852,7.812,21.484,0
1539629013.992,29.785,44.434,50.781,15.137,-21.973,0
1539629013.996,29.785,36.621,51.758,7.324,-42.480,0
1539629014.000,21.973,33.691,49.805,0.000,-29.297,0
1539629014.004,24.902,34.180,45.410,7.812,11.230,0
1539629014.008,22.949,31.738,44.922,-1.465,52.246,0
1539629014.012,20.508,32.715,43.457,-8.301,-7.812,0
1539629014.016,25.879,32.227,40.039,3.906,-4.395,0
1539629014.020,17.578,32.227,41.016,3.418,48.828,0
1539629014.024,21.973,29.785,42.480,0.000,63.965,0
1539629014.028,23.926,28.320,44.434,2.441,51.758,0
1539629014.032,20.020,31.250,42.969,-4.395,26.855,0
1539629014.035,26.855,29.785,44.922,0.000,21.973,0
1539629014.039,27.344,31.738,45.898,2.930,46.387,0
1539629014.043,25.391,35.156,38.086,1.465,78.125,0
1539629014.047,24.902,31.250,32.715,1.465,12.695,0
1539629014.051,20.996,33.691,31.250,5.859,1.465,0
1539629014.055,19.531,33.203,30.762,6.836,16.602,0
1539629014.059,28.320,24.414,28.809,3.906,-13.184,0
1539629014.063,33.203,27.832,24.414,1.953,25.879,0
1539629014.067,32.227,30.273,19.531,6.836,38.574,0
1539629014.071,26.367,31.738,12.207,2.441,60.547,0
1539629014.074,12.695,33.691,9.766,-12.207,77.637,0
1539629014.078,6.348,29.297,14.160,-9.277,8.789,0
1539629014.082,10.254,27.344,14.160,-2.441,36.621,0
1539629014.086,7.324,30.762,10.742,-3.906,61.035,0
1539629014.090,9.277,28.320,5.859,-11.230,26.855,0
1539629014.094,11.230,29.785,7.324,-6.836,40.527,0
1539629014.098,14.160,32.715,8.789,12.695,30.273,0
1539629014.102,22.461,26.855,5.859,11.719,34.180,0
1539629014.106,21.973,24.902,10.254,-5.859,18.555,0
1539629014.110,24.902,25.879,4.883,-2.930,31.738,0
1539629014.114,26.855,25.391,0.488,5.859,41.992,0
1539629014.117,34.668,28.809,2.441,3.906,30.762,0
1539629014.121,36.133,27.344,-0.488,-1.953,31.738,0
1539629014.125,20.020,22.461,-4.395,-4.883,21.973,0
1539629014.129,12.695,24.414,-9.277,-10.742,20.020,0
1539629014.133,18.555,28.809,-9.277,-0.977,46.387,0
1539629014.137,28.320,29.297,-4.883,6.836,30.762,0
1539629014.141,33.203,27.344,-5.859,3.906,10.254,0
1539629014.145,33.203,32.715,-10.254,6.836,47.363,0
1539629014.149,31.250,32.227,-13.672,16.113,51.758,0
1539629014.153,26.367,22.461,-11.230,13.672,24.414,0
1539629014.157,33.203,23.926,-7.812,14.160,47.363,0
1539629014.160,39.551,27.832,-9.277,14.648,30.762,0
1539629014.164,40.527,23.926,-17.578,15.137,12.695,0
1539629014.168,41.504,25.879,-19.043,12.695,-0.488,0
1539629014.172,39.551,29.785,-14.160,4.395,-45.410,0
1539629014.176,30.273,27.832,-13.672,5.371,-2.930,0
1539629014.180,30.762,31.250,-13.184,5.859,2.930,0
1539629014.184,37.598,28.809,-16.113,8.301,24.414,0
1539629014.188,35.156,25.879,-17.578,9.766,34.668,0
1539629014.192,25.391,29.785,-11.719,4.395,32.715,0
1539629014.196,26.367,27.344,-15.625,-2.441,83.984,0
1539629014.199,29.297,31.738,-19.043,-6.836,76.172,0
1539629014.203,26.855,31.250,-9.277,-3.906,53.223,0
1539629014.207,28.320,29.785,-8.301,-0.488,9.277,0
1539629014.211,33.691,32.715,-14.160,10.254,9.766,0
1539629014.215,34.668,31.738,-8.789,10.742,79.590,0
1539629014.219,26.855,31.738,0.000,4.395,96.680,0
1539629014.223,32.715,31.738,1.953,4.883,72.754,0
1539629014.227,33.691,30.273,2.930,5.859,37.598,0
1539629014.231,16.602,26.367,2.441,4.395,68.848,0
1539629014.235,8.789,30.273,3.418,2.441,42.969,0
1539629014.239,16.113,30.273,6.348,4.883,-40.527,0
1539629014.242,18.066,26.367,9.277,10.742,-28.320,0
1539629014.246,17.090,32.715,14.648,5.371,-20.996,0
1539629014.250,20.996,34.668,15.137,0.000,13.184,0
1539629014.254,15.137,27.832,14.160,4.395,111.816,0
1539629014.258,16.602,26.855,24.902,0.000,87.891,0
1539629014.262,25.879,27.832,26.367,-0.977,16.602,0
1539629014.266,24.902,23.926,20.020,5.371,5.859,0
1539629014.270,22.949,21.484,22.949,10.742,-30.762,0
1539629014.274,24.902,22.461,24.414,15.137,38.086,0
1539629014.278,23.438,24.902,22.461,4.883,41.016,0
1539629014.282,26.367,23.926,20.020,6.836,20.508,0
1539629014.285,26.855,24.414,18.066,11.230,45.898,0
1539629014.289,22.461,25.391,16.113,10.254,-3.906,0
1539629014.293,21.973,22.461,20.508,10.742,36.621,0
1539629014.297,23.438,22.949,22.949,6.836,76.172,0
1539629014.301,26.855,27.344,22.949,6.836,36.621,0
1539629014.305,30.273,29.297,26.855,0.977,4.395,0
1539629014.309,29.297,27.344,25.391,4.883,27.344,0
1539629014.313,35.645,27.832,23.438,8.301,-21.484,0
1539629014.317,35.156,30.762,26.855,4.395,2.930,0
1539629014.321,22.949,28.320,26.367,3.906,8.789,0
1539629014.324,23.438,28.809,24.414,8.789,-35.645,0
1539629014.328,21.484,29.785,29.297,10.742,-13.184,0
1539629014.332,14.160,30.273,25.879,-4.883,33.203,0
1539629014.336,9.277,34.180,22.949,-6.348,39.551,0
1539629014.340,14.648,32.715,21.973,-0.977,27.344,0
1539629014.344,17.090,31.738,26.367,-3.906,-4.883,0
1539629014.348,9.766,35.645,26.367,1.953,0.000,0
1539629014.352,16.113,35.645,20.996,3.418,66.406,0
1539629014.356,27.832,29.785,21.973,-3.418,63.965,0
1539629014.360,23.926,27.832,26.367,6.348,-0.977,0
1539629014.364,21.484,31.250,21.484,8.301,13.672,0
1539629014.367,25.879,28.809,17.090,1.953,29.785,0
1539629014.371,23.438,29.785,21.484,1.465,-8.301,0
1539629014.375,20.508,32.227,22.949,3.418,-5.859,0
1539629014.379,24.414,28.320,25.879,1.465,-3.418,0
1539629014.383,26.855,28.320,28.320,6.348,10.254,0
1539629014.387,23.438,29.785,28.320,7.812,-15.137,0
1539629014.391,23.438,28.320,28.320,-6.836,-39.062,0
1539629014.395,22.949,26.367,22.461,-2.441,1.465,0
1539629014.399,23.926,23.926,15.137,1.465,13.672,0
1539629014.403,22.949,25.391,20.508,2.930,5.859,0
1539629014.407,16.602,26.367,20.508,5.371,48.340,0
1539629014.410,27.832,23.438,17.090,0.000,91.309,0
1539629014.414,38.086,24.414,20.996,-1.953,74.219,0
1539629014.418,29.297,26.367,23.926,3.906,8.789,0
1539629014.422,22.461,24.414,27.832,7.812,20.508,0
1539629014.426,21.484,25.879,34.180,1.953,19.043,0
1539629014.430,23.438,26.367,30.762,1.953,19.531,0
1539629014.434,26.855,24.414,28.320,10.742,77.637,0
1539629014.438,18.066,25.391,29.297,8.301,7.812,0
1539629014.442,23.926,29.297,24.902,-0.977,-2.441,0
1539629014.446,38.086,30.762,18.066,7.812,29.785,1
1539629014.449,29.785,24.902,17.578,6.836,-29.785,0
1539629014.453,22.949,25.879,19.043,6.836,-10.254,0
1539629014.457,28.320,29.297,13.184,9.277,-1.465,0
1539629014.461,30.273,27.344,14.648,12.695,35.645,0
1539629014.465,33.203,25.879,21.484,20.508,21.484,0
1539629014.469,28.809,31.250,20.508,8.789,50.293,0
1539629014.473,25.391,34.668,17.090,5.859,78.125,0
1539629014.477,42.480,31.738,22.949,10.254,50.293,0
1539629014.481,41.504,33.203,25.391,10.254,98.145,0
1539629014.485,30.762,34.668,24.414,11.230,56.152,0
1539629014.489,32.227,29.297,27.344,18.555,27.344,0
1539629014.492,32.227,29.297,28.809,24.902,62.988,0
1539629014.496,25.879,27.832,29.297,16.113,94.238,0
1539629014.500,26.367,26.367,32.227,7.812,93.262,0
1539629014.504,29.297,29.297,32.227,8.301,54.688,0
1539629014.508,24.414,29.297,31.250,5.371,55.664,0
1539629014.512,20.508,28.809,33.203,13.672,81.055,0
1539629014.516,20.996,30.273,30.273,15.137,84.961,0
1539629014.520,23.438,27.832,30.762,13.184,6.348,0
1539629014.524,27.344,21.484,31.250,16.113,30.273,0
1539629014.528,31.250,26.367,28.809,16.602,87.891,0
1539629014.532,23.438,25.879,28.809,15.625,72.754,0
1539629014.535,25.879,20.508,28.809,20.020,44.922,0
1539629014.539,23.438,24.902,22.461,18.066,7.324,0
1539629014.543,15.625,32.227,20.020,7.812,98.633,0
1539629014.547,23.926,32.715,24.902,14.648,94.727,0
1539629014.551,24.902,29.785,26.367,14.160,22.461,0
1539629014.555,35.645,30.762,25.879,9.277,57.129,0
1539629014.559,37.598,31.250,30.273,17.578,63.477,0
1539629014.563,31.738,33.203,30.273,14.160,72.266,0
1539629014.567,39.062,34.668,30.273,11.719,51.270,0
1539629014.571,37.109,34.180,31.250,22.461,28.809,0
1539629014.574,33.203,29.785,29.785,23.926,41.992,0
1539629014.578,27.832,28.809,26.855,13.672,31.250,0
1539629014.582,34.668,27.344,23.926,9.277,14.160,0
1539629014.586,47.363,24.414,23.926,11.719,16.113,0
1539629014.590,41.016,26.367,25.391,15.625,20.508,0
1539629014.594,33.203,27.344,20.508,14.648,44.434,0
1539629014.598,33.203,30.762,21.484,15.137,59.570,0
1539629014.602,22.949,30.273,30.273,12.207,74.219,0
1539629014.606,27.344,27.832,31.250,7.812,71.289,0
1539629014.610,25.879,26.855,28.809,8.301,6.348,0
1539629014.614,18.555,28.320,29.297,7.324,5.859,0
1539629014.617,25.879,29.297,29.297,11.230,34.180,0
1539629014.621,28.809,25.391,27.832,12.207,25.391,0
1539629014.625,20.508,24.902,28.809,2.930,17.090,0
1539629014.629,19.043,29.785,24.902,-1.953,-2.930,0
1539629014.633,32.715,34.668,24.414,7.324,-44.922,0
1539629014.637,28.320,36.133,29.297,8.789,2.441,0
1539629014.641,22.949,35.645,29.297,5.371,59.570,0
1539629014.645,29.785,31.738,29.297,2.441,56.641,0
1539629014.649,23.438,32.715,32.227,-0.488,41.992,0
1539629014.653,27.832,36.133,30.762,0.000,22.949,0
1539629014.657,31.738,33.203,23.438,4.395,-1.953,0
1539629014.660,23.926,32.227,25.879,7.324,52.246,0
1539629014.664,19.531,35.156,27.832,11.230,98.145,0
1539629014.668,22.461,33.203,29.785,15.137,57.617,0
1539629014.672,18.066,31.738,31.250,7.812,6.348,0
1539629014.676,8.789,29.785,30.273,4.883,11.230,0
1539629014.680,22.461,33.203,36.133,3.906,16.113,0
1539629014.684,30.762,36.621,32.715,2.441,-38.574,0
1539629014.688,24.414,31.738,26.367,11.719,-28.809,0
1539629014.692,26.367,28.320,29.785,12.207,13.184,0
1539629014.696,23.926,28.809,29.297,13.184,54.688,0
1539629014.699,20.508,31.250,26.855,12.695,109.863,0
1539629014.703,24.414,32.227,30.762,8.789,96.680,0
1539629014.707,24.414,29.785,35.156,11.230,55.176,0
1539629014.711,26.367,29.297,36.133,12.695,47.852,0
1539629014.715,34.180,30.762,32.715,20.020,10.254,0
1539629014.719,22.949,33.203,27.832,16.113,14.648,0
1539629014.723,18.066,34.180,33.203,3.418,28.320,0
1539629014.727,34.668,30.273,33.691,9.766,44.434,0
1539629014.731,32.715,28.320,30.762,9.277,43.945,0
1539629014.735,17.578,30.273,29.785,8.789,25.391,0
1539629014.739,18.066,33.203,32.715,7.812,3.418,0
1539629014.742,26.855,31.738,35.645,-0.488,17.090,0
1539629014.746,31.738,30.762,33.691,5.371,36.621,0
1539629014.750,27.832,32.715,33.691,8.789,-0.977,0
1539629014.754,25.879,32.715,32.227,6.348,-4.883,0
1539629014.758,34.668,33.203,34.668,5.859,56.641,0
1539629014.762,32.227,33.691,39.062,6.836,48.340,0
1539629014.766,30.762,33.691,32.715,13.184,40.039,0
1539629014.770,40.039,31.250,29.297,11.719,75.195,0
1539629014.774,35.645,30.762,33.203,8.789,104.004,0
1539629014.778,30.273,30.762,32.715,2.930,80.078,0
1539629014.782,30.762,31.738,32.715,-0.488,44.434,0
1539629014.785,23.438,34.180,36.621,10.742,-8.789,0
1539629014.789,30.762,34.668,39.551,13.672,-52.734,0
1539629014.793,38.086,34.180,38.574,8.789,-19.531,0
1539629014.797,33.203,33.203,33.203,10.254,2.441,0
1539629014.801,30.762,29.785,28.809,18.555,-13.184,0
1539629014.805,28.809,27.832,25.879,20.996,57.129,0
1539629014.809,35.156,30.273,23.926,13.184,69.824,0
1539629014.813,34.668,30.762,27.344,-1.953,-18.555,0
1539629014.817,35.156,28.809,21.973,-4.395,-1.465,0
1539629014.821,38.086,28.809,17.578,6.836,19.043,0
1539629014.824,37.598,30.762,26.367,8.301,-11.719,0
1539629014.828,27.344,31.250,28.320,4.395,-14.160,0
1539629014.832,22.461,35.156,25.879,5.371,12.695,0
1539629014.836,26.855,33.203,29.297,14.160,35.645,0
1539629014.840,20.020,25.391,34.180,13.184,39.551,0
1539629014.844,18.066,24.902,36.621,4.395,49.316,0
1539629014.848,20.020,26.855,33.203,0.977,93.262,0
1539629014.852,18.066,29.785,34.668,6.836,112.793,0
1539629014.856,21.484,29.297,36.621,8.789,49.805,0
1539629014.860,31.738,30.273,36.621,7.812,35.645,0
1539629014.864,33.203,33.691,31.250,11.230,14.648,0
1539629014.867,23.438,29.297,36.133,10.742,-10.742,0
1539629014.871,17.578,24.902,40.527,13.672,34.668,0
1539629014.875,26.855,24.414,35.645,15.137,25.879,0
1539629014.879,21.973,23.926,41.016,10.742,-11.719,0
1539629014.883,14.160,26.367,46.387,11.719,59.082,0
1539629014.887,21.484,27.344,46.387,12.695,50.293,0
1539629014.891,16.113,27.344,43.457,12.695,26.855,0
1539629014.895,24.414,27.344,42.969,12.695,25.879,0
1539629014.899,31.738,28.809,37.109,19.043,-10.254,0
1539629014.903,20.508,26.855,34.180,15.137,45.898,0
1539629014.907,17.578,21.484,41.992,6.348,70.801,0
1539629014.910,29.297,24.414,44.922,10.742,68.359,0
1539629014.914,23.926,27.344,44.922,10.742,36.621,0
1539629014.918,14.648,28.809,42.969,0.977,35.645,0
1539629014.922,20.508,29.785,42.480,0.488,56.152,0
1539629014.926,26.367,25.391,41.016,4.883,41.992,0
1539629014.930,20.508,29.785,42.969,1.953,30.762,0
1539629014.934,16.113,33.203,44.434,5.859,49.805,0
1539629014.938,26.855,27.832,37.109,13.184,41.992,0
1539629014.942,28.809,29.785,44.922,6.348,53.711,0
1539629014.946,32.715,34.180,45.898,1.953,101.562,0
1539629014.949,36.133,33.691,41.992,15.625,63.477,0
1539629014.953,29.297,32.227,43.457,17.578,42.480,0
1539629014.957,21.484,30.762,39.551,5.371,-3.906,0
1539629014.961,25.391,29.785,42.969,-4.395,-11.719,0
1539629014.965,25.391,25.391,49.316,-4.883,44.434,0
1539629014.969,12.207,23.926,47.852,-1.465,49.316,0
1539629014.973,17.578,20.996,47.363,2.930,20.020,0
1539629014.977,18.555,21.484,46.387,6.348,11.719,0
1539629014.981,19.531,27.344,46.875,10.254,41.016,0
1539629014.985,24.902,29.297,49.316,13.672,26.855,0
1539629014.989,21.484,29.297,47.852,4.395,79.102,0
1539629014.992,28.809,32.227,50.781,3.906,91.309,0
1539629014.996,23.926,30.762,50.781,8.301,20.996,0
1539629015.000,20.508,29.785,50.781,4.883,-3.418,0
1539629015.004,23.926,25.879,53.223,13.184,14.648,0
1539629015.008,10.742,21.484,51.270,7.812,52.246,0
1539629015.012,17.578,25.391,51.758,3.418,71.289,0
1539629015.016,17.578,27.344,55.664,15.625,82.520,0
1539629015.020,10.254,27.344,57.129,13.672,41.504,0
1539629015.024,17.090,26.367,51.758,12.695,-10.254,0
1539629015.028,23.926,27.344,44.434,2.930,41.992,0
1539629015.032,16.113,28.320,44.434,3.906,46.387,0
1539629015.035,11.719,31.738,46.387,9.766,44.434,0
1539629015.039,17.090,36.621,50.781,1.953,29.297,0
1539629015.043,20.996,33.203,47.363,10.742,-48.340,0
1539629015.047,21.973,29.785,44.434,10.254,5.371,0
1539629015.051,21.973,27.832,50.781,13.184,25.879,0
1539629015.055,22.949,26.855,56.641,16.602,4.883,0
1539629015.059,30.762,29.785,55.176,10.742,54.688,0
1539629015.063,33.691,31.738,50.293,15.625,88.867,0
1539629015.067,19.043,31.250,49.316,18.066,35.645,0
1539629015.071,21.973,28.809,46.875,15.137,-22.461,0
1539629015.074,32.227,29.785,45.898,13.184,38.086,0
1539629015.078,28.809,34.180,39.062,13.184,47.852,0
1539629015.082,23.438,29.785,37.598,13.672,20.020,0
1539629015.086,32.227,30.273,46.875,6.836,50.293,0
1539629015.090,33.203,35.156,51.758,13.184,66.895,0
1539629015.094,30.273,36.133,49.316,19.531,9.766,0
1539629015.098,36.133,36.133,49.316,9.766,-32.715,0
1539629015.102,33.203,36.621,60.059,20.020,-13.672,0
1539629015.106,36.133,36.621,60.059,25.879,37.598,0
1539629015.110,38.086,38.086,57.129,17.090,51.270,0
1539629015.114,34.668,34.668,51.758,14.648,-0.488,0
1539629015.117,36.621,32.227,45.410,13.672,-10.742,0
1539629015.121,28.320,31.250,45.410,9.277,41.016,0
1539629015.125,29.297,27.832,51.270,8.789,92.285,0
1539629015.129,33.691,30.273,54.688,17.090,68.359,0
1539629015.133,31.250,32.227,50.781,15.137,37.109,0
1539629015.137,37.109,30.762,46.875,12.207,15.625,0
1539629015.141,33.691,27.832,44.434,15.625,20.996,0
1539629015.145,34.668,29.785,43.945,9.766,71.777,0
1539629015.149,35.645,32.227,43.457,14.648,47.852,0
1539629015.153,33.203,30.762,42.969,21.973,11.230,0
1539629015.157,34.180,30.762,43.457,15.625,51.758,0
1539629015.160,35.645,34.668,38.574,15.137,57.617,0
1539629015.164,30.762,41.016,39.062,10.742,69.824,0
1539629015.168,30.762,38.574,42.969,7.324,80.566,0
1539629015.172,28.320,33.691,43.945,6.836,57.129,0
1539629015.176,34.180,38.086,44.434,5.371,56.152,0
1539629015.180,30.273,39.062,45.410,3.418,41.992,0
1539629015.184,27.832,38.086,42.480,2.930,0.000,0
1539629015.188,32.227,41.016,40.527,0.488,5.371,0
1539629015.192,31.738,38.574,43.457,-6.836,30.762,0
1539629015.196,34.180,35.645,41.504,-0.977,23.438,0
1539629015.199,26.367,34.668,40.527,8.301,61.523,0
1539629015.203,23.926,32.715,41.016,4.883,35.156,0
1539629015.207,21.973,34.668,40.039,-1.465,-0.488,0
1539629015.211,15.137,36.133,42.480,-5.859,13.672,0
1539629015.215,17.578,35.156,40.527,0.977,39.551,0
1539629015.219,18.066,35.156,45.898,15.625,59.082,0
1539629015.223,15.625,36.621,49.316,13.672,93.262,0
1539629015.227,22.949,37.598,50.781,6.836,58.594,0
1539629015.231,23.926,34.668,53.223,7.812,-27.832,0
1539629015.235,23.438,35.645,48.340,6.348,-18.066,0
1539629015.239,28.809,37.598,43.457,7.812,-5.371,0
1539629015.242,31.250,33.691,44.922,11.719,52.246,0
1539629015.246,30.273,31.738,49.316,5.859,78.125,0
1539629015.250,33.691,26.367,49.805,-1.953,20.508,0
1539629015.254,31.738,25.391,45.898,-0.977,20.508,0
1539629015.258,22.461,25.879,40.527,2.441,83.984,0
1539629015.262,17.578,25.879,51.758,5.859,34.180,0
1539629015.266,20.996,30.762,63.477,8.301,28.320,0
1539629015.270,19.531,29.785,55.176,6.348,61.035,0
1539629015.274,18.066,25.879,52.246,4.883,18.555,0
1539629015.278,21.973,22.949,54.688,0.977,33.691,0
1539629015.282,30.762,24.902,52.734,3.906,14.160,0
1539629015.285,30.762,29.297,48.340,8.301,2.930,0
1539629015.289,27.832,30.762,47.852,2.441,-32.715,0
1539629015.293,32.227,27.832,47.852,7.324,-23.926,0
1539629015.297,24.414,25.879,47.363,3.906,-26.855,0
1539629015.301,29.297,28.320,50.781,6.348,5.371,0
1539629015.305,33.691,27.832,53.711,14.648,52.734,0
1539629015.309,27.344,22.461,52.246,9.277,-6.348,0
1539629015.313,28.809,21.973,53.223,5.371,-1.465,0
1539629015.317,29.297,21.484,50.781,7.324,-5.859,0
1539629015.321,29.785,17.090,47.852,6.348,37.109,0
1539629015.324,33.203,20.020,46.387,7.812,68.359,0
1539629015.328,30.273,20.508,42.969,8.789,49.316,0
1539629015.332,29.297,18.555,46.387,7.812,0.977,0
1539629015.336,22.949,13.184,53.223,6.348,21.973,0
1539629015.340,20.508,9.766,51.270,0.977,89.355,0
1539629015.344,21.973,12.695,45.898,-1.953,49.805,0
1539629015.348,18.066,16.113,53.711,7.324,63.477,0
1539629015.352,17.578,14.648,51.270,9.766,-8.789,0
1539629015.356,17.090,15.625,41.016,-3.418,-31.250,0
1539629015.360,23.438,23.926,40.039,2.930,51.758,0
1539629015.364,12.695,20.996,33.691,2.441,22.949,0
1539629015.367,6.348,15.137,31.250,-3.418,41.016,0
1539629015.371,15.137,19.043,33.691,3.906,59.082,0
1539629015.375,20.996,20.996,36.621,-1.953,64.941,0
1539629015.379,19.531,23.438,40.039,-7.812,90.332,0
1539629015.383,11.230,27.832,42.969,-3.906,82.031,0
1539629015.387,10.742,29.297,38.086,-2.441,70.312,0
1539629015.391,22.461,32.227,32.715,10.742,43.457,0
1539629015.395,17.578,31.250,36.621,18.555,83.008,0
1539629015.399,15.137,26.855,39.551,8.301,80.078,0
1539629015.403,15.137,24.902,38.574,-5.859,50.781,0
1539629015.407,7.324,24.414,38.086,-7.812,76.172,0
1539629015.410,8.789,22.949,41.504,-4.395,65.430,0
1539629015.414,6.348,20.508,43.457,-8.789,50.781,0
1539629015.418,12.695,23.926,41.504,0.000,66.895,0
1539629015.422,18.555,25.391,37.598,4.395,39.551,0
1539629015.426,26.367,22.949,42.480,7.324,38.574,0
1539629015.430,21.973,25.879,40.527,2.930,32.227,0
1539629015.434,10.254,24.414,32.715,-3.418,24.902,0
1539629015.438,15.625,22.949,33.203,3.906,31.738,0
1539629015.442,18.555,25.391,32.227,5.859,-15.137,0
1539629015.446,27.832,27.832,36.621,8.301,7.812,0
1539629015.449,31.250,29.785,39.062,14.648,62.988,0
1539629015.453,28.320,29.785,30.273,20.020,67.871,0
1539629015.457,36.621,28.809,22.461,27.832,52.734,0
1539629015.461,39.062,31.250,22.461,21.973,57.129,0
1539629015.465,32.715,32.715,21.973,19.531,24.414,0
1539629015.469,37.598,28.809,23.438,25.879,9.277,0
1539629015.473,38.086,26.855,22.949,15.137,77.148,0
1539629015.477,27.832,26.855,20.020,7.324,27.344,0
1539629015.481,24.902,26.367,20.508,12.207,41.016,0
1539629015.485,20.020,26.855,23.926,15.137,69.824,0
1539629015.489,29.785,32.715,24.414,14.648,14.160,0
1539629015.492,36.133,34.180,22.949,5.371,74.707,0
1539629015.496,32.227,27.832,14.160,7.812,81.055,0
1539629015.500,33.691,30.273,15.137,20.508,55.176,0
1539629015.504,35.156,32.227,15.625,17.578,83.984,0
1539629015.508,31.738,30.273,6.836,1.953,55.176,0
1539629015.512,31.738,29.785,11.719,2.441,33.691,0
1539629015.516,25.879,30.273,15.137,16.113,42.969,0
1539629015.520,29.297,30.273,15.625,7.812,65.918,0
1539629015.524,35.156,26.855,13.184,-3.418,41.504,0
1539629015.528,20.996,28.809,10.742,0.977,-5.371,0
1539629015.532,26.367,30.273,15.137,7.324,46.387,0
1539629015.535,44.434,29.297,14.648,11.230,10.254,0
1539629015.539,35.645,29.297,15.137,12.207,-19.531,0
1539629015.543,20.020,23.926,21.484,10.254,57.129,0
1539629015.547,22.949,26.855,19.043,9.277,40.527,0
1539629015.551,27.832,29.297,17.090,10.254,23.926,0
1539629015.555,20.996,24.902,22.461,8.789,42.969,0
1539629015.559,17.578,27.344,20.508,8.301,41.016,0
1539629015.563,31.250,25.879,21.484,5.859,58.105,0
1539629015.567,24.902,22.949,28.320,14.648,96.680,0
1539629015.571,20.508,22.949,26.855,19.043,77.637,0
1539629015.574,29.785,26.367,25.391,10.742,69.824,0
1539629015.578,20.020,25.879,24.414,10.742,57.617,0
1539629015.582,21.484,26.855,20.020,19.043,-14.648,0
1539629015.586,32.715,28.320,22.949,15.625,-16.602,0
1539629015.590,17.578,28.320,25.879,7.324,59.570,0
1539629015.594,11.719,28.809,23.926,16.113,102.539,0
1539629015.598,24.414,28.809,19.531,13.672,65.430,0
1539629015.602,20.996,31.738,21.484,7.812,47.363,0
1539629015.606,12.207,37.109,22.461,3.906,46.875,0
1539629015.610,18.066,30.273,14.648,-2.930,32.715,0
1539629015.614,23.438,22.461,11.719,9.766,-3.418,0
1539629015.617,20.508,22.461,17.090,13.184,-1.465,0
1539629015.621,24.414,24.902,18.066,1.465,-17.578,0
1539629015.625,24.902,29.297,18.066,2.930,-46.387,0
1539629015.629,20.996,29.785,20.508,4.883,4.395,0
1539629015.633,21.484,34.668,18.066,9.766,81.543,0
1539629015.637,21.484,35.156,13.672,3.906,36.621,0
1539629015.641,18.555,36.621,16.602,-1.465,-6.836,0
1539629015.645,23.926,38.086,22.461,11.230,32.227,0
1539629015.649,26.367,30.273,20.020,1.953,29.785,0
1539629015.653,33.203,27.344,15.625,-2.441,5.859,0
1539629015.657,28.809,29.785,18.555,10.742,16.113,0
1539629015.660,23.926,30.762,20.508,-0.977,64.941,0
1539629015.664,29.785,31.250,19.043,-4.883,20.996,0
1539629015.668,21.973,30.273,18.555,-1.465,-21.973,1
1539629015.672,21.484,31.738,18.066,-1.953,-2.441,0
1539629015.676,22.949,35.645,24.902,2.930,-11.230,0
1539629015.680,23.438,36.133,25.391,2.441,14.648,0
1539629015.684,21.484,31.738,11.230,0.977,39.551,0
1539629015.688,23.926,33.203,16.113,2.441,36.133,0
1539629015.692,29.297,36.621,28.320,9.277,77.148,0
1539629015.696,28.809,38.086,31.250,10.254,102.539,0
1539629015.699,30.273,40.039,32.227,8.789,44.434,0
1539629015.703,23.438,34.668,29.785,6.348,46.387,0
1539629015.707,25.879,32.715,27.832,10.742,72.754,0
1539629015.711,34.180,34.180,29.297,14.648,85.449,0
1539629015.715,28.320,36.133,26.855,4.395,58.105,0
1539629015.719,17.578,36.621,22.461,5.859,44.922,0
1539629015.723,16.602,35.645,18.066,5.371,30.762,0
1539629015.727,15.625,34.668,18.066,-0.977,3.906,0
1539629015.731,9.766,32.227,21.973,6.836,27.832,0
1539629015.735,13.672,37.109,26.855,14.160,33.691,0
1539629015.739,17.578,39.551,29.785,9.277,48.340,0
1539629015.742,18.555,35.645,22.949,-6.836,46.875,0
1539629015.746,24.902,35.156,27.832,-4.883,21.484,0
1539629015.750,20.020,35.645,29.785,8.301,9.766,0
1539629015.754,25.391,35.645,15.625,5.859,2.441,0
1539629015.758,23.926,33.203,18.066,-1.953,3.418,0
1539629015.762,16.113,37.109,25.879,-7.324,-3.418,0
1539629015.766,20.508,38.574,22.461,-6.836,7.812,0
1539629015.770,18.066,39.551,19.531,9.277,-0.977,0
1539629015.774,17.090,39.551,24.902,16.602,-8.789,0
1539629015.778,17.578,34.180,24.414,14.648,75.195,0
1539629015.782,17.090,36.133,22.461,11.719,96.191,0
1539629015.785,22.461,35.156,20.996,7.812,60.059,0
1539629015.789,25.879,31.250,20.996,16.113,59.570,0
1539629015.793,20.020,33.691,24.902,13.184,7.812,0
1539629015.797,18.066,34.668,29.297,5.859,4.883,0
1539629015.801,25.391,32.227,30.273,10.254,33.203,0
1539629015.805,17.578,33.691,24.414,4.395,11.719,0
1539629015.809,19.531,34.668,21.484,1.953,-49.805,0
1539629015.813,19.043,32.715,22.461,9.766,-17.578,0
1539629015.817,6.836,30.762,28.809,11.230,30.762,0
1539629015.821,11.719,31.738,32.715,8.301,-0.488,0
1539629015.824,20.996,36.133,35.645,16.113,12.207,0
1539629015.828,26.855,36.133,36.133,15.625,58.594,0
1539629015.832,33.691,33.203,35.156,2.930,41.016,0
1539629015.836,31.738,37.109,30.762,7.812,43.945,0
1539629015.840,25.391,38.086,28.809,13.184,68.359,0
1539629015.844,24.902,34.668,28.320,12.695,77.637,0
1539629015.848,26.367,34.180,26.855,12.207,30.273,0
1539629015.852,16.602,32.715,29.785,6.836,7.812,0
1539629015.856,17.090,31.738,30.762,10.742,71.777,0
1539629015.860,28.809,29.297,30.762,12.695,52.246,0
1539629015.864,25.391,28.809,31.250,3.906,45.410,0
1539629015.867,19.531,30.762,24.902,0.000,11.230,0
1539629015.871,24.414,34.180,20.996,7.324,0.000,0
1539629015.875,37.109,37.598,21.484,10.742,22.461,0
1539629015.879,36.621,37.598,22.461,11.230,90.820,0
1539629015.883,24.902,39.062,25.391,13.672,60.059,0
1539629015.887,30.762,34.668,22.461,15.137,43.945,0
1539629015.891,33.691,30.273,20.508,14.648,50.781,0
1539629015.895,29.297,31.738,21.484,9.277,-16.113,0
1539629015.899,37.598,32.715,20.508,13.672,7.812,0
1539629015.903,30.762,30.762,16.113,11.230,-9.766,0
1539629015.907,39.551,29.785,11.230,7.324,-34.180,0
1539629015.910,43.457,34.180,11.719,7.324,0.000,0
1539629015.914,24.414,35.645,18.066,4.883,40.039,0
1539629015.918,26.855,35.156,20.020,12.695,48.340,0
1539629015.922,33.203,38.574,18.555,20.020,17.578,0
1539629015.926,35.645,35.156,19.043,20.508,2.930,0
1539629015.930,28.809,33.691,23.926,16.602,39.551,0
1539629015.934,25.879,35.645,23.438,19.043,64.941,0
1539629015.938,30.273,34.180,15.137,16.113,44.922,0
1539629015.942,37.109,31.250,11.230,2.441,42.480,0
1539629015.946,41.016,30.273,13.672,1.465,39.551,0
1539629015.949,33.203,32.715,19.043,11.719,118.164,0
1539629015.953,27.344,33.691,20.020,13.184,104.492,0
1539629015.957,36.621,33.691,20.020,3.906,16.113,0
1539629015.961,39.062,31.738,18.555,8.301,49.316,0
1539629015.965,30.762,29.297,17.578,18.066,95.703,0
1539629015.969,37.598,28.320,18.066,16.602,31.738,0
1539629015.973,46.387,26.367,14.648,16.113,-39.551,0
1539629015.977,34.180,23.926,16.113,19.043,-14.648,0
1539629015.981,30.273,25.879,24.414,23.926,26.367,0
1539629015.985,31.738,29.785,26.367,24.902,84.473,0
1539629015.989,27.344,30.273,22.461,17.578,84.473,0
1539629015.992,29.297,29.785,23.926,19.043,33.691,0
1539629015.996,34.180,28.809,24.414,20.020,20.020,0
1539629016.000,29.785,27.832,20.996,15.137,68.359,0
1539629016.004,31.250,25.879,24.414,16.113,61.523,0
1539629016.008,28.320,27.344,25.391,17.090,18.066,0
1539629016.012,19.531,28.320,19.531,17.090,86.426,0
1539629016.016,29.785,28.320,19.043,15.625,96.680,0
1539629016.020,29.785,33.691,20.996,12.207,1.465,0
1539629016.024,18.066,34.668,23.438,12.695,42.480,0
1539629016.028,22.461,29.297,27.832,12.207,52.734,0
1539629016.032,29.297,29.785,27.832,8.301,8.789,0
1539629016.035,26.367,30.273,28.320,10.742,32.715,0
1539629016.039,24.902,28.320,31.250,13.184,49.805,0
1539629016.043,29.297,29.785,27.832,13.184,30.762,0
1539629016.047,31.250,30.762,24.414,15.625,12.207,0
1539629016.051,24.902,30.762,26.855,7.812,-14.648,0
1539629016.055,9.766,29.785,25.879,3.418,13.184,0
1539629016.059,11.230,25.879,26.367,9.766,61.035,0
1539629016.063,17.090,28.809,31.738,8.301,38.574,0
1539629016.067,20.020,32.715,34.180,3.418,-10.254,0
1539629016.071,24.414,32.715,38.086,2.441,36.621,0
1539629016.074,20.508,31.738,37.109,16.602,96.680,0
1539629016.078,24.414,30.273,34.668,20.996,96.680,0
1539629016.082,26.855,28.809,38.086,8.301,38.086,0
1539629016.086,29.297,26.367,41.992,4.883,37.598,0
1539629016.090,32.715,29.785,39.551,9.766,19.531,0
1539629016.094,33.203,30.762,36.621,13.672,-24.902,0
1539629016.098,31.738,23.438,39.551,7.812,-40.039,0
1539629016.102,21.973,23.438,40.039,9.277,-12.695,0
1539629016.106,19.531,29.297,40.039,10.254,18.555,0
1539629016.110,28.320,33.691,41.016,5.859,27.344,0
1539629016.114,38.086,34.668,41.016,12.695,48.828,0
1539629016.117,32.715,35.156,40.039,22.949,37.598,0
1539629016.121,29.297,37.598,43.457,24.902,9.766,0
1539629016.125,30.273,35.156,41.992,24.414,31.250,0
1539629016.129,31.738,33.203,39.062,19.531,41.016,0
1539629016.133,38.086,34.668,44.434,20.020,29.785,0
1539629016.137,37.598,33.203,49.805,19.531,11.230,0
1539629016.141,31.250,30.762,39.551,15.625,23.926,0
1539629016.145,25.879,33.691,41.016,18.555,69.336,0
1539629016.149,32.715,33.691,47.852,14.160,71.777,0
1539629016.153,31.738,30.273,43.945,11.230,24.902,0
1539629016.157,28.809,28.809,40.527,12.207,55.664,0
1539629016.160,35.156,25.879,33.691,13.672,70.801,0
1539629016.164,31.250,24.414,36.621,16.602,-13.184,0
1539629016.168,28.320,25.391,43.457,17.578,-26.855,0
1539629016.172,31.738,28.320,42.969,10.742,31.250,0
1539629016.176,25.391,29.785,39.551,-1.465,20.020,0
1539629016.180,24.902,31.250,39.551,-3.906,1.465,0
1539629016.184,27.344,29.785,38.574,9.766,36.621,0
1539629016.188,20.508,25.879,41.992,3.418,58.594,0
1539629016.192,23.438,26.855,46.875,-4.395,48.340,0
1539629016.196,32.715,26.855,42.480,8.301,59.082,0
1539629016.199,33.203,31.738,45.410,10.742,62.988,0
1539629016.203,30.762,30.273,50.781,10.254,35.156,0
1539629016.207,24.414,23.926,50.781,8.301,12.695,0
1539629016.211,20.508,24.414,48.340,6.836,-6.348,0
1539629016.215,24.414,24.902,41.016,11.230,9.277,0
1539629016.219,31.250,24.902,44.922,6.836,44.434,0
1539629016.223,26.367,30.273,50.781,14.160,57.129,0
1539629016.227,29.297,30.273,43.457,16.602,-23.438,0
1539629016.231,24.902,25.879,39.551,0.977,7.324,0
1539629016.235,14.648,28.809,47.852,-6.836,62.500,0
1539629016.239,16.113,30.273,53.223,-0.977,1.465,0
1539629016.242,12.207,26.855,49.316,-1.465,28.809,0
1539629016.246,13.672,25.391,43.945,-0.977,45.898,0
1539629016.250,19.531,27.344,41.992,7.812,52.246,0
1539629016.254,25.879,27.344,41.992,7.812,63.965,0
1539629016.258,24.414,30.762,42.969,6.836,54.199,0
1539629016.262,19.531,33.691,40.039,11.230,58.594,0
1539629016.266,16.602,32.715,40.527,9.277,45.410,0
1539629016.270,19.043,31.738,44.922,4.883,44.434,0
1539629016.274,24.414,27.832,42.969,1.953,40.527,0
1539629016.278,17.578,26.367,40.527,2.930,9.766,0
1539629016.282,20.508,28.320,40.527,5.371,25.879,0
1539629016.285,25.879,27.344,40.527,5.371,15.625,0
1539629016.289,34.668,29.785,41.992,14.160,4.395,0
1539629016.293,31.250,31.250,41.992,16.602,15.625,0
1539629016.297,25.879,30.762,29.297,12.695,49.805,0
1539629016.301,27.832,27.832,24.414,15.625,27.344,0
1539629016.305,19.531,27.344,36.133,16.602,-8.301,0
1539629016.309,21.484,30.762,41.504,12.207,-9.766,0
1539629016.313,17.090,35.645,39.551,5.371,-0.977,0
1539629016.317,20.020,37.598,37.598,7.324,63.965,0
1539629016.321,25.879,34.668,33.691,6.348,79.590,0
1539629016.324,31.738,33.203,32.715,8.301,55.176,0
1539629016.328,29.785,34.180,37.109,13.184,70.312,0
1539629016.332,28.809,32.715,38.574,12.695,109.375,0
1539629016.336,31.250,27.344,36.133,8.301,92.285,0
1539629016.340,24.902,29.785,34.668,4.883,17.090,0
1539629016.344,19.043,33.203,39.062,9.277,-44.434,0
1539629016.348,16.113,31.738,42.969,9.277,46.875,0
1539629016.352,21.484,29.785,41.992,8.789,52.246,0
1539629016.356,20.508,28.809,40.039,15.137,22.949,0
1539629016.360,15.137,27.832,43.457,9.277,98.633,0
1539629016.364,16.602,28.809,44.434,6.836,89.844,0
1539629016.367,20.508,33.203,39.062,7.324,48.340,0
1539629016.371,24.902,33.691,39.551,0.488,1.465,0
1539629016.375,27.344,28.809,38.574,0.977,-37.109,0
1539629016.379,29.297,32.715,39.062,0.977,-27.832,0
1539629016.383,30.273,31.738,39.062,0.977,16.113,0
1539629016.387,28.809,28.809,36.621,5.371,30.273,0
1539629016.391,26.367,32.715,31.738,4.395,5.371,0
1539629016.395,34.668,33.691,31.738,7.324,37.598,0
1539629016.399,27.344,32.715,36.133,7.324,73.242,0
1539629016.403,22.949,31.250,34.180,10.742,33.691,0
1539629016.407,22.949,32.227,30.762,15.137,35.156,0
1539629016.410,28.320,35.645,27.344,8.301,61.035,0
1539629016.414,28.809,34.668,27.344,13.184,57.617,0
1539629016.418,26.855,31.250,34.668,10.254,49.805,0
1539629016.422,32.715,36.621,35.645,3.906,61.523,0
1539629016.426,33.691,37.598,36.133,17.578,64.453,0
1539629016.430,34.668,35.156,40.527,19.531,43.945,0
1539629016.434,41.016,37.598,39.062,15.625,21.484,0
1539629016.438,41.016,33.203,38.086,13.672,67.871,0
1539629016.442,37.109,33.691,35.156,12.695,35.645,0
1539629016.446,31.738,37.109,31.250,24.414,-11.230,0
1539629016.449,21.973,36.133,30.762,26.855,5.371,0
1539629016.453,31.250,32.227,27.832,20.020,14.648,0
1539629016.457,28.320,25.879,24.414,17.090,2.930,0
1539629016.461,24.414,24.414,25.391,6.836,39.551,0
1539629016.465,21.484,31.250,31.738,4.395,36.621,0
1539629016.469,18.555,35.156,30.273,3.418,-2.930,0
1539629016.473,22.461,32.715,27.344,3.418,37.598,0
1539629016.477,24.414,32.227,33.691,4.395,78.125,0
1539629016.481,23.438,30.273,32.715,2.930,93.750,0
1539629016.485,18.555,27.344,27.832,9.277,39.062,0
1539629016.489,15.137,27.832,22.461,11.230,-3.906,0
1539629016.492,18.555,33.203,18.555,0.977,32.715,0
1539629016.496,24.902,31.738,23.438,2.441,-1.465,0
1539629016.500,19.531,27.344,30.273,11.719,-18.555,0
1539629016.504,11.719,31.250,29.785,7.812,25.391,0
1539629016.508,7.324,31.738,25.879,8.789,24.414,0
1539629016.512,15.137,23.926,21.973,10.742,21.484,0
1539629016.516,20.020,23.926,20.996,3.418,-3.418,0
1539629016.520,16.602,28.320,28.320,9.277,45.898,0
1539629016.524,26.367,29.785,29.785,16.113,79.102,0
1539629016.528,33.691,32.715,29.297,10.254,63.477,0
1539629016.532,26.367,32.227,24.902,11.230,45.410,0
1539629016.535,18.555,30.762,21.973,18.066,28.809,0
1539629016.539,20.996,31.250,28.320,12.207,47.363,0
1539629016.543,34.668,33.203,29.297,0.000,39.062,0
1539629016.547,28.809,31.250,27.344,5.371,26.367,0
1539629016.551,24.902,27.832,27.832,2.930,26.855,0
1539629016.555,31.738,30.762,23.438,-6.836,35.156,0
1539629016.559,22.461,33.691,18.066,0.488,61.523,0
1539629016.563,16.602,33.691,19.531,5.371,45.898,0
1539629016.567,21.484,28.809,20.508,5.371,49.805,0
1539629016.571,26.855,23.438,20.996,4.883,51.270,0
1539629016.574,28.320,24.414,20.020,1.465,-17.578,0
1539629016.578,18.066,23.926,21.484,1.465,-0.488,0
1539629016.582,17.090,24.902,24.414,4.395,7.324,0
1539629016.586,15.625,28.320,20.996,-0.488,-8.301,0
1539629016.590,11.230,24.414,19.043,0.488,19.043,0
1539629016.594,21.484,24.414,20.508,5.859,36.621,0
1539629016.598,30.762,31.250,21.484,3.418,46.875,0
1539629016.602,19.043,28.809,23.438,5.371,45.898,0
1539629016.606,17.090,23.438,30.762,6.348,13.672,0
1539629016.610,21.484,28.809,29.297,6.836,-4.395,0
1539629016.614,16.602,30.273,21.973,3.418,34.668,0
1539629016.617,23.438,28.320,26.855,4.395,52.246,0
1539629016.621,27.832,31.250,29.297,9.766,51.270,0
1539629016.625,18.066,33.203,24.414,7.812,42.969,0
1539629016.629,14.648,32.227,22.461,6.836,66.406,0
1539629016.633,25.391,27.344,25.879,7.812,101.074,0
1539629016.637,23.438,26.855,33.691,11.230,83.008,0
1539629016.641,14.160,28.809,27.344,12.695,54.688,0
1539629016.645,21.973,27.344,25.391,11.719,32.227,0
1539629016.649,28.320,25.391,29.297,16.602,13.672,0
1539629016.653,26.855,30.273,27.344,11.719,-3.418,0
1539629016.657,27.832,32.227,31.738,0.977,1.953,0
1539629016.660,24.902,26.855,33.203,5.859,37.109,0
1539629016.664,19.531,29.785,32.227,8.301,25.879,0
1539629016.668,21.484,26.855,34.668,6.348,0.977,0
1539629016.672,26.855,25.879,33.691,10.254,32.715,0
1539629016.676,16.113,30.273,33.691,9.766,28.320,0
1539629016.680,14.648,28.809,33.203,8.301,63.965,0
1539629016.684,22.949,27.344,34.668,10.742,57.129,0
1539629016.688,19.043,27.832,36.133,10.742,57.617,0
1539629016.692,15.625,26.855,35.156,5.371,40.039,0
1539629016.696,23.926,26.855,37.109,5.371,3.418,0
1539629016.699,16.602,25.879,40.039,6.836,54.199,0
1539629016.703,10.742,20.020,36.621,7.324,66.406,0
1539629016.707,21.973,18.555,32.715,6.836,17.090,0
1539629016.711,17.578,20.020,34.180,3.906,18.066,0
1539629016.715,10.254,20.996,33.203,6.836,-3.418,0
1539629016.719,15.625,20.996,29.785,9.277,14.160,0
1539629016.723,14.160,20.508,27.832,-0.977,16.113,0
1539629016.727,16.602,20.996,23.926,-0.977,35.156,0
1539629016.731,17.090,24.414,21.973,8.789,43.457,0
1539629016.735,12.695,27.832,26.855,8.301,-14.648,0
1539629016.739,22.461,24.414,25.391,2.441,-12.207,0
1539629016.742,26.855,21.484,26.855,12.207,59.082,0
1539629016.746,28.809,24.902,29.297,19.531,75.195,0
1539629016.750,31.250,26.855,33.691,18.555,8.301,0
1539629016.754,28.320,24.902,35.156,15.137,-12.695,0
1539629016.758,25.391,28.809,28.809,17.578,51.758,0
1539629016.762,21.973,32.227,31.250,17.090,30.762,0
1539629016.766,20.020,24.414,34.668,8.301,35.645,0
1539629016.770,18.066,20.508,27.832,2.930,103.516,0
1539629016.774,20.020,25.391,26.855,-1.465,18.066,0
1539629016.778,24.902,28.320,31.250,-1.953,-1.465,0
1539629016.782,17.090,26.367,37.109,2.930,34.180,0
1539629016.785,14.648,29.297,38.574,6.348,-2.930,0
1539629016.789,20.508,27.832,40.527,11.230,32.227,0
1539629016.793,22.949,23.438,42.480,7.812,35.645,0
1539629016.797,24.902,27.344,41.016,5.859,-7.812,0
1539629016.801,26.855,26.855,41.504,12.207,56.641,0
1539629016.805,27.344,29.297,39.062,7.324,66.895,0
1539629016.809,29.297,29.785,38.574,5.371,29.785,0
1539629016.813,20.996,24.902,37.598,3.906,52.246,0
1539629016.817,23.438,26.855,31.738,3.418,76.660,0
1539629016.821,22.461,30.273,32.227,7.812,58.594,0
1539629016.824,25.879,34.668,31.738,2.930,38.574,0
1539629016.828,26.855,33.691,28.809,3.906,41.016,0
1539629016.832,16.113,33.203,25.391,10.254,10.742,0
1539629016.836,15.137,37.109,24.902,1.953,38.086,0
1539629016.840,17.090,33.203,27.832,-2.441,9.766,0
1539629016.844,20.508,27.832,26.855,-6.836,3.906,0
1539629016.848,25.879,32.227,29.297,-10.742,16.113,0
1539629016.852,29.785,36.133,38.086,0.000,-27.832,0
1539629016.856,23.926,29.297,35.645,0.977,-8.789,0
1539629016.860,19.043,28.320,33.203,5.371,26.855,0
1539629016.864,26.855,30.273,32.227,14.648,46.387,0
1539629016.867,33.203,26.367,30.273,9.766,42.480,0
1539629016.871,35.645,29.297,35.156,19.043,30.762,0
1539629016.875,34.668,30.762,30.273,21.484,13.672,0
1539629016.879,18.066,24.902,32.227,0.977,-10.254,0
1539629016.883,14.648,24.414,37.109,-3.906,-0.977,0
1539629016.887,14.160,25.879,38.574,3.418,13.672,0
1539629016.891,6.836,27.832,35.156,6.348,19.043,0
1539629016.895,11.230,35.156,29.785,4.395,-4.395,0
1539629016.899,14.648,33.203,26.367,-0.488,-19.043,0
1539629016.903,14.648,31.738,27.344,-6.836,-15.625,0
1539629016.907,16.113,33.691,31.250,-3.418,19.531,0
1539629016.910,15.625,31.250,32.715,3.418,43.945,0
1539629016.914,27.832,34.668,34.668,12.207,77.148,0
1539629016.918,39.551,36.621,39.551,13.672,44.922,0
1539629016.922,30.762,41.992,44.922,8.301,17.090,0
1539629016.926,31.250,44.434,44.434,12.207,12.695,0
1539629016.930,37.109,36.621,36.621,12.695,11.230,0
1539629016.934,41.992,34.668,30.762,16.113,27.832,1
1539629016.938,43.945,40.039,29.785,16.602,41.992,0
1539629016.942,43.457,43.945,25.879,12.207,73.730,0
1539629016.946,40.527,43.457,22.949,17.090,56.641,0
1539629016.949,42.969,40.039,29.785,17.090,-2.441,0
1539629016.953,42.480,44.434,37.109,9.277,8.301,0
1539629016.957,34.180,44.434,39.551,10.742,52.246,0
1539629016.961,31.738,37.109,39.551,3.906,48.828,0
1539629016.965,28.809,39.062,42.480,10.254,-0.977,0
1539629016.969,29.297,39.551,47.363,20.020,-16.113,0
1539629016.973,25.391,34.668,42.480,7.812,51.270,0
1539629016.977,23.926,34.668,39.062,9.277,84.961,0
1539629016.981,27.832,37.598,39.551,21.973,48.828,0
1539629016.985,36.621,37.598,36.133,23.438,25.391,0
1539629016.989,37.598,33.203,36.621,19.043,14.160,0
1539629016.992,37.598,31.738,43.945,17.578,19.531,0
1539629016.996,32.227,32.227,47.852,16.602,24.902,0
1539629017.000,29.785,27.344,47.852,23.926,56.641,0
1539629017.004,32.715,26.367,50.781,21.973,47.363,0
1539629017.008,27.344,30.273,47.852,16.602,21.484,0
1539629017.012,25.879,32.715,42.480,20.996,-17.578,0
1539629017.016,27.344,30.273,42.969,23.926,-5.371,0
1539629017.020,31.738,28.809,48.828,17.090,20.996,0
1539629017.024,27.344,28.809,47.852,16.602,11.230,0
1539629017.028,35.156,29.297,36.133,17.578,-6.348,0
1539629017.032,37.598,29.785,35.645,7.812,-1.465,0
1539629017.035,22.461,30.273,44.434,0.000,21.484,0
1539629017.039,28.320,30.273,49.316,6.348,6.836,0
1539629017.043,32.715,26.367,50.293,11.230,31.738,0
1539629017.047,28.320,28.320,48.340,20.996,45.410,0
1539629017.051,23.438,30.273,45.898,17.090,0.000,0
1539629017.055,25.391,29.785,43.457,4.883,-18.555,0
1539629017.059,30.273,29.297,38.574,10.254,11.719,0
1539629017.063,35.645,30.273,35.645,7.812,41.016,0
1539629017.067,39.062,33.203,38.086,11.230,71.777,0
1539629017.071,35.156,32.227,40.527,16.602,97.656,0
1539629017.074,26.855,33.203,37.109,14.648,81.543,0
1539629017.078,33.203,35.645,38.574,13.672,54.688,0
1539629017.082,33.691,34.180,36.133,17.578,44.922,0
1539629017.086,28.320,33.691,33.691,18.066,10.742,0
1539629017.090,33.203,36.621,35.645,16.113,31.250,0
1539629017.094,30.762,32.715,30.762,10.254,84.961,0
1539629017.098,37.598,29.785,31.738,7.812,72.754,0
1539629017.102,37.109,33.203,31.738,13.672,46.387,0
1539629017.106,36.133,32.227,27.344,13.184,42.969,0
1539629017.110,38.086,37.109,34.180,7.812,51.270,0
1539629017.114,32.715,38.086,35.645,0.977,53.223,0
1539629017.117,42.969,32.715,26.855,12.695,24.902,0
1539629017.121,41.992,31.250,28.320,21.484,21.484,0
1539629017.125,30.762,31.250,28.320,13.184,10.254,0
1539629017.129,28.809,35.645,24.414,6.348,34.668,0
1539629017.133,26.855,36.133,30.273,5.859,44.922,0
1539629017.137,20.508,34.668,34.668,18.066,45.410,0
1539629017.141,27.344,38.086,34.668,14.648,20.020,0
1539629017.145,33.691,34.668,31.738,2.930,-25.391,0
1539629017.149,32.227,27.832,28.320,7.324,44.434,0
1539629017.153,30.273,34.180,32.715,10.742,42.969,0
1539629017.157,30.273,39.062,40.527,14.160,25.879,0
1539629017.160,33.203,37.109,41.504,16.602,63.477,0
1539629017.164,32.227,43.457,36.621,22.461,50.293,0
1539629017.168,38.574,46.875,37.598,26.367,66.895,0
1539629017.172,38.086,41.992,40.527,15.137,100.586,0
1539629017.176,25.391,38.574,42.480,16.602,28.809,0
1539629017.180,27.832,38.574,44.922,16.602,-3.906,0
1539629017.184,34.668,42.969,45.410,8.301,40.527,0
1539629017.188,28.809,41.016,40.527,16.602,17.578,0
1539629017.192,25.879,35.156,43.457,15.137,19.043,0
1539629017.196,33.203,40.527,46.387,15.137,54.199,0
1539629017.199,30.273,43.457,43.945,22.461,36.133,0
1539629017.203,25.879,43.945,41.992,18.555,30.273,0
1539629017.207,21.973,43.457,40.527,15.137,80.078,0
1539629017.211,32.715,37.598,40.527,18.066,83.984,0
1539629017.215,40.527,39.551,41.016,15.625,26.855,0
1539629017.219,29.297,42.480,40.039,10.742,-9.277,0
1539629017.223,25.391,41.016,38.574,18.555,26.855,0
1539629017.227,27.832,42.480,35.645,21.973,32.715,0
1539629017.231,27.832,40.527,35.156,17.578,30.762,0
1539629017.235,29.785,37.598,38.086,21.973,23.438,0
1539629017.239,30.762,41.016,38.086,19.531,25.391,0
1539629017.242,26.855,41.016,36.133,12.207,57.129,0
1539629017.246,27.344,40.527,34.668,19.043,100.098,0
1539629017.250,38.574,43.945,36.621,19.531,56.152,0
1539629017.254,37.109,42.480,32.227,15.625,15.625,0
1539629017.258,44.434,42.480,34.668,21.973,49.805,0
1539629017.262,43.457,43.945,37.109,15.137,83.496,0
1539629017.266,37.109,43.945,32.715,17.090,58.594,0
1539629017.270,40.527,44.922,35.156,28.809,46.387,0
1539629017.274,34.668,42.480,38.574,28.320,70.312,0
1539629017.278,38.086,40.527,39.062,22.949,51.270,0
1539629017.282,37.109,38.574,37.109,16.113,10.254,0
1539629017.285,35.156,34.180,37.598,15.137,15.625,0
1539629017.289,38.086,40.039,40.527,13.672,57.129,0
1539629017.293,36.621,41.016,41.016,13.672,70.312,0
1539629017.297,39.551,36.133,39.551,16.113,38.574,0
1539629017.301,31.738,37.598,38.086,17.090,5.859,0
1539629017.305,28.809,39.551,39.062,26.367,13.672,0
1539629017.309,37.109,37.109,41.016,14.648,35.156,0
1539629017.313,38.574,37.598,41.504,10.742,3.906,0
1539629017.317,33.203,38.086,38.574,20.996,11.230,0
1539629017.321,26.855,36.133,34.180,16.113,6.348,0
1539629017.324,28.320,35.645,31.250,15.625,-7.812,0
1539629017.328,27.832,34.668,30.762,8.301,5.371,0
1539629017.332,25.391,35.645,31.738,7.324,41.016,0
1539629017.336,30.273,37.598,31.250,11.230,49.805,0
1539629017.340,30.762,36.133,31.738,16.113,-6.836,0
1539629017.344,34.180,35.645,34.668,22.461,10.254,0
1539629017.348,31.250,35.645,31.738,9.277,51.758,0
1539629017.352,25.879,38.574,28.320,10.254,49.805,0
1539629017.356,24.902,39.062,33.691,11.230,27.344,0
1539629017.360,28.809,36.133,35.645,7.812,7.324,0
1539629017.364,30.273,32.715,33.203,8.301,13.672,0
1539629017.367,24.902,32.227,29.785,1.465,24.902,0
1539629017.371,24.902,34.180,25.879,6.348,28.320,0
1539629017.375,26.367,36.133,23.926,13.184,38.574,0
1539629017.379,36.621,39.551,20.508,15.137,56.641,0
1539629017.383,39.551,42.480,18.066,13.672,80.078,0
1539629017.387,36.621,40.527,23.438,12.207,78.613,0
1539629017.391,32.227,39.062,32.227,16.602,38.574,0
1539629017.395,29.785,39.062,34.668,18.066,40.039,0
1539629017.399,26.367,38.574,31.738,14.648,27.344,0
1539629017.403,19.043,33.691,32.227,12.695,8.789,0
1539629017.407,16.602,30.762,37.598,4.883,-22.461,0
1539629017.410,8.301,33.691,36.133,0.488,-5.371,0
1539629017.414,19.531,34.180,32.715,3.418,24.902,0
1539629017.418,24.414,31.738,34.180,8.301,63.965,0
1539629017.422,20.996,30.762,34.180,12.207,95.703,0
1539629017.426,12.695,30.762,33.691,15.625,63.965,0
1539629017.430,8.789,29.785,39.551,10.254,-45.898,0
1539629017.434,20.996,29.785,37.598,5.859,-50.781,0
1539629017.438,29.297,28.809,33.203,20.020,10.742,0
1539629017.442,29.785,29.785,35.645,17.090,36.621,0
1539629017.446,16.113,29.297,27.832,-3.418,55.664,0
1539629017.449,2.441,22.949,26.367,-5.371,75.684,0
1539629017.453,2.441,20.996,29.297,0.977,89.844,0
1539629017.457,-0.977,25.391,35.156,8.301,89.355,0
1539629017.461,9.277,26.367,42.969,5.371,90.332,0
1539629017.465,20.996,28.809,42.480,1.465,43.457,0
1539629017.469,12.695,30.762,41.504,15.137,32.715,0
1539629017.473,26.367,31.738,44.434,25.391,-11.719,0
1539629017.477,28.809,30.273,45.410,20.996,34.668,0
1539629017.481,20.020,27.832,44.434,15.625,53.223,0
1539629017.485,24.902,28.809,44.434,11.719,0.977,0
1539629017.489,21.484,29.785,44.922,15.137,38.574,0
1539629017.492,13.672,27.832,43.457,11.719,10.742,0
1539629017.496,17.090,26.367,40.039,12.207,6.836,0
1539629017.500,26.367,24.902,37.109,21.484,36.621,0
1539629017.504,29.297,24.902,32.227,14.160,38.574,0
1539629017.508,28.320,25.391,35.645,11.230,102.051,0
1539629017.512,31.738,27.832,45.410,22.461,54.688,0
1539629017.516,33.203,28.320,44.434,17.578,18.066,0
1539629017.520,32.227,29.785,38.574,9.766,63.965,0
1539629017.524,27.832,33.691,35.645,13.672,82.520,0
1539629017.528,30.762,28.809,35.645,21.973,46.875,0
1539629017.532,33.203,28.320,34.668,25.879,45.410,0
1539629017.535,46.875,30.762,34.668,28.809,85.938,0
1539629017.539,47.363,28.320,36.133,26.367,102.539,0
1539629017.543,35.156,28.809,34.180,17.090,113.770,0
1539629017.547,39.551,31.250,33.691,11.230,80.566,0
1539629017.551,34.668,28.809,35.156,26.367,26.367,0
1539629017.555,26.367,20.996,35.645,35.156,30.273,0
1539629017.559,32.715,26.367,33.691,15.137,14.648,0
1539629017.563,47.363,28.809,32.715,8.301,7.324,0
1539629017.567,41.016,28.809,31.738,19.531,41.992,0
1539629017.571,34.668,30.273,29.297,24.414,92.285,0
1539629017.574,37.109,30.762,29.785,23.926,88.379,0
1539629017.578,38.086,31.250,24.902,16.113,7.812,0
1539629017.582,32.227,30.273,18.555,14.160,4.883,0
1539629017.586,24.902,27.832,25.879,19.531,20.508,0
1539629017.590,29.785,29.785,32.715,14.160,11.230,0
1539629017.594,48.340,30.273,27.832,20.020,-11.719,0
1539629017.598,44.434,25.391,26.855,20.508,-31.250,0
1539629017.602,30.762,21.973,29.297,11.230,-1.465,0
1539629017.606,34.668,26.367,29.297,9.277,23.926,0
1539629017.610,33.691,31.250,32.227,12.695,56.641,0
1539629017.614,34.180,34.180,28.809,13.672,-11.719,0
1539629017.617,24.414,33.203,26.855,11.230,-8.301,0
1539629017.621,20.996,27.832,32.715,4.395,46.387,0
1539629017.625,26.367,24.414,33.691,0.000,-18.066,0
1539629017.629,29.785,26.855,30.273,1.465,-29.785,0
1539629017.633,22.949,29.785,32.227,-10.742,73.242,0
1539629017.637,18.555,29.297,34.668,-15.625,70.801,0
1539629017.641,17.090,31.250,38.086,-4.395,20.996,0
1539629017.645,20.020,34.668,38.086,-0.488,-14.648,0
1539629017.649,22.461,35.156,36.621,-8.301,4.883,0
1539629017.653,19.043,35.156,36.621,-2.930,30.762,0
1539629017.657,21.484,36.133,33.691,-2.441,30.273,0
1539629017.660,27.344,37.598,35.645,0.488,82.031,0
1539629017.664,20.996,37.598,34.668,-9.766,56.641,0
1539629017.668,1.953,33.691,35.645,-17.578,52.734,0
1539629017.672,6.836,37.598,36.621,-18.555,56.152,0
1539629017.676,4.883,47.363,30.762,-35.156,35.156,0
1539629017.680,-7.324,46.875,32.715,-47.363,45.410,0
1539629017.684,-8.301,39.062,41.504,-35.645,24.902,0
1539629017.688,-25.879,42.480,43.945,-40.527,-0.977,0
1539629017.692,-36.133,44.922,44.434,-58.594,16.113,0
1539629017.696,-31.250,42.969,50.781,-50.781,19.531,0
1539629017.699,-33.691,47.363,52.734,-57.617,25.391,0
1539629017.703,-50.293,51.270,46.875,-68.359,0.977,0
1539629017.707,-66.406,51.270,41.992,-71.777,24.414,0
1539629017.711,-75.684,47.363,34.668,-87.402,71.289,0
1539629017.715,-77.637,44.922,33.203,-87.402,50.293,0
1539629017.719,-76.172,43.945,31.250,-76.660,23.926,0
1539629017.723,-62.500,45.410,28.320,-83.008,36.621,0
1539629017.727,-56.152,44.922,30.273,-93.750,67.383,0
1539629017.731,-59.570,46.875,31.250,-81.055,44.922,0
1539629017.735,-64.453,48.828,28.809,-71.777,72.754,0
1539629017.739,-70.312,51.270,26.855,-81.543,38.086,0
1539629017.742,-53.711,50.293,26.855,-88.867,4.395,0
1539629017.746,-30.273,47.363,23.438,-80.566,30.273,0
1539629017.750,-40.039,53.711,20.996,-54.688,12.695,0
1539629017.754,-47.852,50.781,15.625,-53.223,-24.414,0
1539629017.758,-30.762,42.969,12.695,-59.082,-52.734,0
1539629017.762,-33.203,42.480,21.484,-58.105,-11.719,0
1539629017.766,-30.273,38.086,32.227,-38.574,19.531,0
1539629017.770,-20.996,36.133,35.645,-22.461,41.992,0
1539629017.774,-0.977,39.551,33.203,-31.738,102.539,0
1539629017.778,0.977,38.086,34.180,-21.973,95.215,0
1539629017.782,5.859,34.668,37.109,-0.977,71.777,0
1539629017.785,28.320,34.668,31.250,12.207,39.551,0
1539629017.789,29.297,26.855,28.809,11.230,19.531,0
1539629017.793,37.109,24.414,31.738,22.949,59.082,0
1539629017.797,50.781,23.926,37.109,40.527,45.410,0
1539629017.801,56.641,18.066,39.062,40.039,39.062,0
1539629017.805,57.617,13.672,36.621,43.457,-26.855,0
1539629017.809,60.547,10.742,41.504,57.617,13.184,0
1539629017.813,62.988,6.836,41.504,57.617,84.473,0
1539629017.817,59.082,1.953,34.668,38.574,59.082,0
1539629017.821,53.223,4.883,30.762,40.527,47.852,0
1539629017.824,55.664,3.906,33.691,49.316,38.086,0
1539629017.828,64.453,7.324,37.109,47.363,10.742,0
1539629017.832,72.266,3.418,34.180,47.363,23.926,0
1539629017.836,79.590,-4.883,35.645,63.477,45.898,0
1539629017.840,68.848,0.977,39.062,67.871,-6.348,0
1539629017.844,60.547,5.859,40.527,61.035,10.254,0
1539629017.848,69.824,7.812,45.898,58.594,114.746,0
1539629017.852,72.266,9.766,43.457,51.758,63.477,0
1539629017.856,62.500,9.766,36.621,52.246,-45.410,0
1539629017.860,56.152,11.230,39.551,46.875,-31.250,0
1539629017.864,57.129,9.766,39.062,39.551,-39.062,0
1539629017.867,51.758,9.766,35.156,41.504,-8.301,0
1539629017.871,49.316,10.742,33.691,35.645,37.109,0
1539629017.875,52.734,10.254,35.156,39.551,48.828,0
1539629017.879,49.316,11.230,34.668,39.062,23.438,0
1539629017.883,47.852,16.113,37.598,39.062,15.625,0
1539629017.887,40.527,16.113,41.016,40.527,51.758,0
1539629017.891,40.039,13.672,46.387,35.645,24.902,0
1539629017.895,51.270,15.625,40.039,40.039,33.691,0
1539629017.899,44.434,20.508,35.156,35.645,101.074,0
1539629017.903,58.105,23.438,41.016,37.109,65.430,0
1539629017.907,58.105,20.508,39.062,36.133,74.707,0
1539629017.910,44.922,21.484,37.109,31.738,103.516,0
1539629017.914,45.898,23.438,40.039,32.227,79.102,0
1539629017.918,43.945,21.484,46.875,29.297,19.043,0
1539629017.922,49.805,14.648,54.688,32.715,25.391,0
1539629017.926,49.805,17.578,57.617,31.738,46.387,0
1539629017.930,41.016,24.414,53.711,24.902,4.883,0
1539629017.934,40.039,26.855,55.176,24.902,17.090,0
1539629017.938,40.039,27.832,58.594,21.484,20.020,0
1539629017.942,41.504,30.273,53.711,23.438,41.016,0
1539629017.946,40.527,30.762,54.688,20.996,79.590,0
1539629017.949,35.156,25.391,59.082,23.926,93.750,0
1539629017.953,35.645,26.855,59.570,27.344,71.289,0
1539629017.957,39.062,32.227,56.641,24.414,29.785,0
1539629017.961,45.898,32.227,54.199,28.320,7.812,0
1539629017.965,44.922,29.785,58.594,33.691,17.578,0
1539629017.969,41.504,31.250,60.547,26.367,51.270,0
1539629017.973,51.270,31.738,60.059,24.414,72.266,0
1539629017.977,50.293,32.227,60.059,31.250,40.527,0
1539629017.981,48.828,32.715,60.547,29.297,5.371,0
1539629017.985,57.617,29.785,61.035,34.180,-23.438,0
1539629017.989,51.270,27.832,61.523,29.785,5.859,0
1539629017.992,36.621,29.297,62.500,24.902,72.266,0
1539629017.996,41.992,31.738,61.035,27.832,51.270,0
1539629018.000,44.922,32.227,59.082,33.691,21.973,0
1539629018.004,51.758,30.762,59.082,30.762,-64.453,0
1539629018.008,54.688,29.297,52.246,20.996,-32.715,0
1539629018.012,41.992,25.391,48.828,12.695,96.191,0
1539629018.016,38.574,26.367,51.270,15.137,62.012,0
1539629018.020,40.039,28.320,53.223,25.879,69.336,0
1539629018.024,33.203,23.926,49.316,18.555,-3.418,0
1539629018.028,36.133,24.414,48.828,9.766,-62.012,0
1539629018.032,43.945,27.344,49.805,12.207,42.969,0
1539629018.035,38.574,28.809,49.316,17.578,49.805,0
1539629018.039,39.062,27.832,48.828,29.785,6.348,0
1539629018.043,45.410,28.320,43.945,28.809,-33.691,0
1539629018.047,44.434,28.809,40.527,26.855,-15.137,0
1539629018.051,46.387,30.762,43.457,35.156,71.289,0
1539629018.055,43.945,35.645,46.875,26.367,35.645,0
1539629018.059,40.039,31.250,44.922,18.555,-7.812,0
1539629018.063,46.387,29.785,45.410,19.531,68.848,0
1539629018.067,44.434,35.156,48.340,15.625,68.359,0
1539629018.071,37.109,34.668,44.434,12.207,38.086,0
1539629018.074,39.062,31.738,42.969,13.184,50.293,0
1539629018.078,40.039,36.621,43.945,27.344,47.852,0
1539629018.082,37.109,40.039,44.922,31.738,17.578,0
1539629018.086,38.574,37.598,47.852,24.414,-31.250,0
1539629018.090,41.992,36.621,46.875,25.391,-2.441,0
1539629018.094,42.969,35.156,44.434,26.855,89.355,0
1539629018.098,37.109,30.762,47.363,21.484,52.246,0
1539629018.102,43.457,30.762,49.805,22.949,19.043,0
1539629018.106,40.527,36.621,44.434,27.832,66.895,0
1539629018.110,36.621,37.598,44.922,22.461,45.410,0
1539629018.114,45.898,37.109,41.016,23.438,26.367,0
1539629018.117,43.945,36.133,38.086,24.902,9.277,0
1539629018.121,34.668,40.039,42.480,12.695,54.688,0
1539629018.125,33.691,42.969,39.551,6.348,75.684,0
1539629018.129,29.785,44.434,38.574,16.113,31.738,0
1539629018.133,18.066,40.527,42.480,13.672,26.367,0
1539629018.137,16.602,34.180,45.898,9.766,58.594,0
1539629018.141,22.461,40.527,42.969,8.789,78.613,0
1539629018.145,29.785,39.062,47.852,9.277,23.926,0
1539629018.149,29.785,34.180,47.852,7.812,2.930,0
1539629018.153,22.461,34.668,43.945,17.090,-12.695,0
1539629018.157,31.250,29.297,46.875,23.926,17.578,0
1539629018.160,34.180,28.809,42.969,18.555,53.223,0
1539629018.164,25.391,37.598,38.574,19.531,13.184,0
1539629018.168,32.227,34.180,38.574,27.344,8.301,0
1539629018.172,40.039,31.738,34.180,28.809,4.395,0
1539629018.176,34.668,38.574,34.180,24.902,30.762,0
1539629018.180,44.922,37.109,33.691,29.297,64.453,0
1539629018.184,48.340,34.668,31.738,29.297,38.086,0
1539629018.188,41.992,37.109,35.645,18.066,44.434,0
1539629018.192,36.621,37.109,32.715,13.184,40.527,0
1539629018.196,44.922,38.086,28.809,18.555,19.531,0
1539629018.199,47.363,40.527,28.320,22.461,41.016,0
1539629018.203,37.109,39.551,25.391,19.531,-20.020,0
1539629018.207,35.645,35.645,29.785,16.602,-12.695,0
1539629018.211,30.273,32.715,36.621,13.184,70.312,0
1539629018.215,24.902,31.738,32.715,7.812,65.430,0
1539629018.219,28.320,34.180,30.762,16.113,-6.348,0
1539629018.223,38.086,34.180,35.156,29.297,-30.762,0
1539629018.227,28.809,33.203,33.691,19.043,45.410,0
1539629018.231,12.207,29.297,25.391,8.789,60.059,0
1539629018.235,12.695,23.926,28.320,7.812,15.625,0
1539629018.239,27.832,25.391,34.180,7.324,27.832,0
1539629018.242,35.156,28.809,34.668,20.996,35.156,0
1539629018.246,21.973,30.273,32.227,20.508,28.320,0
1539629018.250,16.113,28.809,31.250,7.324,43.457,0
1539629018.254,22.461,28.320,32.227,7.324,67.871,0
1539629018.258,37.109,33.203,32.227,13.672,8.789,0
1539629018.262,41.016,34.180,31.250,23.438,35.156,0
1539629018.266,38.574,35.645,28.809,19.531,60.059,0
1539629018.270,39.062,36.621,24.414,18.066,21.973,0
1539629018.274,31.250,33.203,28.320,17.090,73.730,0
1539629018.278,33.691,34.180,33.691,10.742,82.520,0
1539629018.282,28.320,35.156,29.297,2.930,52.246,0
1539629018.285,29.297,33.691,29.297,6.348,52.246,0
1539629018.289,33.203,33.203,34.668,15.625,14.160,1
1539629018.293,25.391,35.156,41.504,4.395,-24.902,0
1539629018.297,25.391,37.598,43.945,3.906,19.043,0
1539629018.301,24.414,34.668,44.434,5.859,16.113,0
1539629018.305,20.020,33.203,46.387,8.301,-30.273,0
1539629018.309,15.625,30.273,43.945,15.137,7.812,0
1539629018.313,16.602,29.297,41.992,6.836,-15.137,0
1539629018.317,22.461,32.227,46.387,3.906,-27.832,0
1539629018.321,16.602,28.320,46.875,9.766,45.898,0
1539629018.324,14.648,31.250,38.574,17.090,24.414,0
1539629018.328,28.809,32.715,38.574,23.926,11.719,0
1539629018.332,23.438,35.156,40.527,15.625,3.418,0
1539629018.336,19.531,36.621,38.086,10.742,18.066,0
1539629018.340,20.996,31.250,36.621,15.137,75.195,0
1539629018.344,26.855,26.855,27.344,20.996,27.344,0
1539629018.348,36.133,26.367,25.391,18.555,16.113,0
1539629018.352,28.320,28.320,24.902,2.930,46.875,0
1539629018.356,17.090,29.297,24.414,7.324,-18.555,0
1539629018.360,16.113,30.273,24.902,13.672,-49.805,0
1539629018.364,19.043,27.344,27.344,8.301,12.207,0
1539629018.367,19.531,28.320,30.273,9.766,23.926,0
1539629018.371,19.043,30.273,33.691,11.230,31.250,0
1539629018.375,31.250,26.855,33.691,13.672,49.316,0
1539629018.379,28.809,26.855,27.344,9.277,52.734,0
1539629018.383,16.113,28.809,23.926,3.418,62.988,0
1539629018.387,20.508,28.809,27.832,8.301,31.738,0
1539629018.391,22.461,30.762,20.996,4.883,29.297,0
1539629018.395,32.227,33.691,13.184,1.465,41.504,0
1539629018.399,26.367,34.668,18.555,7.812,38.086,0
1539629018.403,18.066,22.949,25.391,13.672,1.465,0
1539629018.407,24.414,16.602,28.320,10.742,20.996,0
1539629018.410,24.902,27.344,27.344,7.324,35.156,0
1539629018.414,25.879,32.227,31.250,12.207,38.574,0
1539629018.418,23.926,32.227,38.086,11.719,36.621,0
1539629018.422,17.578,33.691,33.691,6.836,-4.883,0
1539629018.426,12.207,36.621,27.344,7.324,31.250,0
1539629018.430,17.090,35.156,30.762,8.789,22.461,0
1539629018.434,20.508,28.809,33.203,9.277,-24.902,0
1539629018.438,15.137,26.367,32.227,3.418,25.391,0
1539629018.442,20.996,33.691,35.645,0.488,32.227,0
1539629018.446,24.902,33.691,38.086,2.930,52.246,0
1539629018.449,15.625,25.391,34.180,4.395,100.586,0
1539629018.453,15.625,25.879,34.668,5.371,24.902,0
1539629018.457,21.484,24.902,34.180,3.906,4.883,0
1539629018.461,19.531,24.902,38.086,1.465,20.996,0
1539629018.465,21.973,28.809,40.527,-0.977,-9.277,0
1539629018.469,21.484,30.762,39.062,0.000,33.203,0
1539629018.473,23.926,32.715,37.109,3.906,26.855,0
1539629018.477,33.691,28.809,37.109,7.812,10.254,0
1539629018.481,24.902,23.926,32.715,8.301,61.035,0
1539629018.485,19.531,28.809,32.715,16.602,62.500,0
1539629018.489,21.484,28.320,40.527,20.996,35.156,0
1539629018.492,23.926,27.344,40.039,13.672,43.945,0
1539629018.496,24.902,25.879,34.180,11.719,-13.184,0
1539629018.500,21.484,23.926,36.621,18.066,-49.316,0
1539629018.504,22.949,27.344,36.133,15.137,1.953,0
1539629018.508,20.996,27.832,29.297,7.812,-1.953,0
1539629018.512,23.926,25.391,26.855,10.254,12.695,0
1539629018.516,27.344,22.949,27.344,12.207,24.414,0
1539629018.520,20.508,25.391,29.785,11.719,11.230,0
1539629018.524,20.020,25.879,28.320,13.184,63.965,0
1539629018.528,21.973,22.949,28.320,14.160,58.105,0
1539629018.532,21.973,22.949,29.785,14.648,-28.320,0
1539629018.535,26.855,24.414,25.879,9.277,-22.461,0
1539629018.539,27.344,26.855,26.367,2.441,15.625,0
1539629018.543,21.484,25.391,31.250,2.930,-18.066,0
1539629018.547,23.926,25.879,35.645,1.953,-35.645,0
1539629018.551,24.414,30.273,35.645,3.906,-0.488,0
1539629018.555,22.949,27.344,37.109,4.883,5.371,0
1539629018.559,24.414,25.879,39.551,2.930,63.965,0
1539629018.563,17.578,28.320,34.180,5.859,100.586,0
1539629018.567,14.160,32.715,32.227,8.789,83.008,0
1539629018.571,19.531,33.203,33.691,10.742,45.410,0
1539629018.574,20.996,28.320,30.273,9.766,11.719,0
1539629018.578,23.926,29.785,30.273,7.324,57.129,0
1539629018.582,26.855,32.227,34.668,6.348,65.918,0
1539629018.586,28.809,31.738,36.621,4.395,59.082,0
1539629018.590,25.391,31.250,37.109,7.812,53.711,0
1539629018.594,25.391,28.809,41.504,9.766,-5.859,0
1539629018.598,32.715,26.367,41.992,12.695,-2.930,0
1539629018.602,31.250,30.273,35.156,6.836,51.270,0
1539629018.606,22.461,31.738,33.203,2.441,10.742,0
1539629018.610,28.809,30.273,39.551,2.441,-4.883,0
1539629018.614,34.180,31.738,38.086,3.418,41.016,0
1539629018.617,17.578,32.715,35.645,10.742,6.836,0
1539629018.621,20.020,32.715,33.203,6.836,20.020,0
1539629018.625,34.180,30.273,32.715,3.418,99.121,0
1539629018.629,23.438,27.344,29.297,5.859,91.309,0
1539629018.633,19.531,30.273,23.438,5.371,68.848,0
1539629018.637,19.043,32.227,23.438,5.371,39.062,0
1539629018.641,13.184,28.809,22.461,0.488,45.410,0
1539629018.645,16.113,31.250,25.879,-1.465,85.449,0
1539629018.649,22.461,31.738,31.738,7.812,55.664,0
1539629018.653,16.602,29.785,29.297,11.230,20.508,0
1539629018.657,17.578,33.691,30.273,17.578,42.969,0
1539629018.660,25.879,37.598,40.527,11.719,64.453,0
1539629018.664,28.320,32.715,43.457,3.906,44.922,0
1539629018.668,16.602,30.762,39.062,6.836,67.383,0
1539629018.672,13.184,34.668,35.156,2.930,24.902,0
1539629018.676,22.949,35.645,34.180,3.906,-2.930,0
1539629018.680,26.855,38.574,38.086,3.906,58.105,0
1539629018.684,31.738,38.086,38.086,4.395,48.340,0
1539629018.688,31.738,32.715,35.156,6.348,43.945,0
1539629018.692,29.297,30.762,38.574,4.395,4.883,0
1539629018.696,25.391,31.738,40.039,8.301,23.438,0
1539629018.699,30.273,32.715,38.086,7.324,49.805,0
1539629018.703,35.156,37.598,42.969,5.371,48.828,0
1539629018.707,33.691,40.527,45.410,11.719,37.109,0
1539629018.711,27.344,36.133,43.945,19.043,52.246,0
1539629018.715,22.949,35.156,41.504,15.625,93.262,0
1539629018.719,27.344,37.598,36.621,7.324,25.391,0
1539629018.723,26.367,38.086,39.551,14.648,-36.133,0
1539629018.727,27.344,36.621,41.016,11.230,-31.738,0
1539629018.731,25.879,37.109,40.039,-0.488,25.391,0
1539629018.735,27.832,37.598,39.062,10.254,39.062,0
1539629018.739,27.344,35.645,41.016,7.812,-25.391,0
1539629018.742,22.461,39.062,42.969,-2.930,-51.270,0
1539629018.746,18.555,36.621,42.480,3.418,17.090,0
1539629018.750,13.672,32.227,46.875,-1.465,18.066,0
1539629018.754,21.484,37.109,52.734,9.277,28.809,0
1539629018.758,36.133,38.086,50.293,18.555,59.082,0
1539629018.762,33.691,32.227,43.945,6.836,36.621,0
1539629018.766,27.832,29.785,41.016,9.766,49.805,0
1539629018.770,33.691,30.762,39.551,8.301,20.020,0
1539629018.774,27.832,32.715,38.086,7.812,22.461,0
1539629018.778,25.879,33.691,42.480,8.301,61.035,0
1539629018.782,32.227,37.109,42.480,11.230,49.805,0
1539629018.785,22.949,36.621,41.504,4.395,51.758,0
1539629018.789,19.531,35.645,38.086,0.000,37.109,0
1539629018.793,29.297,36.621,36.621,5.859,16.602,0
1539629018.797,29.785,34.668,41.504,7.812,-12.695,0
1539629018.801,34.668,36.621,42.969,18.066,-45.410,0
1539629018.805,31.250,34.668,38.574,19.043,26.855,0
1539629018.809,23.926,25.879,27.832,5.859,49.316,0
1539629018.813,17.578,17.578,28.320,1.465,65.430,0
1539629018.817,19.043,14.648,35.645,-1.953,45.898,0
1539629018.821,17.578,13.184,41.016,0.000,-0.488,0
1539629018.824,17.578,13.672,42.480,8.789,12.695,0
1539629018.828,22.949,10.742,39.551,11.230,18.066,0
1539629018.832,20.996,10.254,36.133,4.395,74.219,0
1539629018.836,14.648,12.695,37.109,14.160,98.633,0
1539629018.840,20.996,11.719,38.086,21.973,29.297,0
1539629018.844,25.879,10.742,35.156,9.277,19.531,0
1539629018.848,17.578,11.230,34.668,14.160,62.988,0
1539629018.852,24.902,10.254,36.133,11.230,82.031,0
1539629018.856,31.250,8.789,36.621,7.324,62.988,0
1539629018.860,30.273,11.230,38.574,26.855,62.988,0
1539629018.864,26.367,15.625,40.039,24.414,54.688,0
1539629018.867,24.414,15.137,40.039,10.742,49.805,0
1539629018.871,22.461,17.090,34.180,7.812,83.008,0
1539629018.875,18.066,21.484,29.785,1.953,138.184,0
1539629018.879,26.367,24.414,32.227,11.719,56.641,0
1539629018.883,27.344,28.320,34.668,14.648,-2.441,0
1539629018.887,27.344,29.297,37.109,8.301,49.316,0
1539629018.891,30.273,28.320,37.598,15.137,92.285,0
1539629018.895,25.879,28.320,36.621,11.719,64.941,0
1539629018.899,28.320,33.203,34.668,4.883,53.223,0
1539629018.903,32.227,35.645,34.180,16.113,93.262,0
1539629018.907,27.832,33.691,33.691,19.531,52.246,0
1539629018.910,30.762,34.180,30.762,16.113,73.242,0
1539629018.914,25.879,35.645,31.738,21.484,83.496,0
1539629018.918,24.902,39.551,37.109,29.785,41.992,0
1539629018.922,31.250,38.574,39.062,21.973,-0.488,0
1539629018.926,22.461,36.621,37.598,13.672,-16.113,0
1539629018.930,28.320,38.574,30.273,14.160,-6.348,0
1539629018.934,31.738,41.016,31.738,9.766,21.484,0
1539629018.938,22.461,40.039,42.969,9.766,39.551,0
1539629018.942,23.438,35.645,43.457,12.207,81.055,0
1539629018.946,32.715,36.621,41.504,13.672,82.520,0
1539629018.949,21.973,37.598,42.969,6.348,35.156,0
1539629018.953,12.207,39.062,43.945,4.395,36.133,0
1539629018.957,22.461,35.156,42.969,7.812,66.406,0
1539629018.961,26.855,31.738,43.457,8.789,39.551,0
1539629018.965,30.762,35.645,43.945,13.672,29.785,0
1539629018.969,34.668,37.598,42.969,12.207,62.012,0
1539629018.973,28.809,37.598,41.992,10.254,52.734,0
1539629018.977,23.926,36.621,43.457,10.742,30.273,0
1539629018.981,31.738,34.668,46.875,6.348,32.227,0
1539629018.985,29.297,35.156,49.316,5.371,27.344,0
1539629018.989,27.344,40.527,52.734,6.836,36.133,0
1539629018.992,30.762,37.598,53.223,14.648,37.109,0
1539629018.996,26.367,32.715,49.316,20.020,-1.465,0
1539629019.000,33.203,34.668,46.387,14.648,7.324,0
1539629019.004,34.180,38.086,45.898,18.555,40.527,0
1539629019.008,30.273,37.598,44.922,22.949,44.434,0
1539629019.012,30.273,38.086,43.457,15.137,38.086,0
1539629019.016,32.715,40.527,45.898,20.020,-19.043,0
1539629019.020,25.391,41.016,45.410,20.508,-34.668,0
1539629019.024,27.344,38.574,38.086,18.555,65.430,0
1539629019.028,35.156,34.180,45.898,16.602,37.109,0
1539629019.032,20.020,35.156,54.199,8.301,-24.414,0
1539629019.035,18.555,35.645,52.246,4.395,-6.348,0
1539629019.039,28.320,35.156,50.781,5.859,35.645,0
1539629019.043,25.391,35.156,45.898,6.348,46.875,0
1539629019.047,26.855,32.715,43.457,8.301,39.062,0
1539629019.051,31.250,35.645,44.434,11.719,9.277,0
1539629019.055,32.715,38.086,43.457,13.184,41.016,0
1539629019.059,32.715,36.133,44.434,13.672,18.555,0
1539629019.063,39.062,40.039,46.875,12.207,-16.113,0
1539629019.067,32.227,38.086,47.852,16.602,22.949,0
1539629019.071,22.949,33.203,51.270,21.973,25.879,0
1539629019.074,30.762,34.668,49.316,19.531,16.602,0
1539629019.078,33.691,36.133,42.969,23.438,41.992,0
1539629019.082,31.250,36.621,40.527,32.227,92.285,0
1539629019.086,37.598,37.109,45.410,20.996,72.266,0
1539629019.090,45.410,39.551,45.898,8.301,32.227,0
1539629019.094,43.457,38.574,38.086,10.254,54.199,0
1539629019.098,37.109,31.738,35.156,17.090,80.078,0
1539629019.102,32.715,33.203,37.598,24.902,73.242,0
1539629019.106,35.645,33.691,37.598,18.066,-13.184,0
1539629019.110,34.668,28.320,38.574,12.695,3.906,0
1539629019.114,22.949,35.156,44.922,8.789,8.789,0
1539629019.117,23.438,40.039,49.805,8.301,-11.719,0
1539629019.121,32.227,34.668,46.875,14.648,79.102,0
1539629019.125,34.668,35.156,45.410,17.578,52.246,0
1539629019.129,42.969,39.551,46.387,18.066,-22.949,0
1539629019.133,32.715,36.133,43.457,23.438,17.578,0
1539629019.137,21.973,32.715,46.387,22.949,37.109,0
1539629019.141,34.180,31.738,49.805,19.531,-20.996,0
1539629019.145,46.875,30.273,53.223,23.926,-22.949,0
1539629019.149,41.504,34.180,52.246,21.484,-28.809,0
1539629019.153,32.227,35.645,48.828,19.531,-23.438,0
1539629019.157,33.203,36.621,48.340,23.438,7.812,0
1539629019.160,27.832,38.086,48.340,20.020,18.066,0
1539629019.164,22.461,31.738,49.316,12.207,40.527,0
1539629019.168,28.320,28.320,47.363,13.672,33.203,0
1539629019.172,26.367,32.227,43.945,11.230,53.711,0
1539629019.176,18.555,31.250,50.293,14.160,35.156,0
1539629019.180,19.531,29.785,52.246,23.926,19.043,0
1539629019.184,20.020,32.227,40.039,12.207,101.562,0
1539629019.188,16.602,33.203,36.133,9.766,119.629,0
1539629019.192,16.602,34.668,39.062,11.719,52.246,0
1539629019.196,19.531,35.156,38.574,4.883,22.949,0
1539629019.199,18.066,36.621,35.645,12.695,81.055,0
1539629019.203,24.902,36.133,39.062,15.625,65.430,0
1539629019.207,25.391,35.156,40.039,10.742,39.551,0
1539629019.211,36.133,36.133,41.016,2.930,33.203,0
1539629019.215,38.574,35.645,44.434,1.953,44.922,0
1539629019.219,26.367,38.086,41.992,10.742,83.984,0
1539629019.223,28.320,40.039,42.969,14.160,69.336,0
1539629019.227,34.668,38.574,42.480,15.625,20.996,0
1539629019.231,25.879,37.109,35.156,16.602,36.133,0
1539629019.235,20.508,36.621,33.203,17.090,31.738,0
1539629019.239,17.090,35.156,36.621,11.719,22.949,0
1539629019.242,18.066,30.273,42.480,5.371,33.203,0
1539629019.246,22.461,29.785,43.945,4.395,9.277,0
1539629019.250,27.344,34.180,39.062,5.371,0.488,0
1539629019.254,33.691,36.133,35.156,4.395,11.230,0
1539629019.258,27.832,33.691,36.133,2.441,92.773,0
1539629019.262,35.156,31.738,38.574,9.277,82.031,0
1539629019.266,33.203,29.297,38.574,20.020,29.297,0
1539629019.270,28.809,25.879,38.086,20.996,43.457,0
1539629019.274,32.715,24.414,36.621,23.438,32.227,0
1539629019.278,24.414,24.414,34.668,27.344,37.598,0
1539629019.282,26.855,27.832,30.273,23.926,65.430,0
1539629019.285,31.250,27.344,27.344,21.484,48.828,0
1539629019.289,23.438,22.461,26.855,22.949,13.672,0
1539629019.293,27.344,24.414,25.879,25.879,-13.184,0
1539629019.297,37.109,29.785,31.738,24.902,20.508,0
1539629019.301,28.809,24.902,37.598,20.996,27.832,0
1539629019.305,8.789,18.555,38.086,17.090,-4.883,0
1539629019.309,10.742,21.484,31.250,15.137,-9.766,0
1539629019.313,18.555,25.391,26.855,11.230,2.930,0
1539629019.317,18.555,26.367,31.738,0.488,6.348,0
1539629019.321,13.184,24.902,35.645,4.395,12.207,0
1539629019.324,14.160,23.926,35.645,15.137,-11.719,0
1539629019.328,32.715,27.344,36.133,14.160,-21.973,0
1539629019.332,30.762,28.809,40.039,15.625,32.715,0
1539629019.336,12.207,28.809,44.434,7.324,37.109,0
1539629019.340,13.184,27.832,45.410,7.812,10.254,0
1539629019.344,26.367,28.809,44.434,11.719,19.043,0
1539629019.348,28.320,30.273,44.434,14.648,51.270,0
1539629019.352,23.438,30.762,44.434,16.113,4.395,0
1539629019.356,27.832,33.203,43.457,6.348,18.555,0
1539629019.360,24.414,32.715,42.480,-0.488,41.992,0
1539629019.364,33.203,31.738,38.574,9.766,29.785,0
1539629019.367,30.273,31.250,37.109,18.555,68.848,0
1539629019.371,20.020,27.832,40.527,17.090,35.645,0
1539629019.375,32.227,28.809,45.898,16.602,28.809,0
1539629019.379,29.297,33.691,41.504,8.301,51.758,0
1539629019.383,20.996,33.203,36.133,10.254,12.207,0
1539629019.387,26.855,33.203,42.969,8.301,-32.715,0
1539629019.391,32.227,34.180,44.922,2.930,-16.602,0
1539629019.395,30.273,32.715,41.504,6.836,59.570,0
1539629019.399,27.344,36.621,40.039,16.113,52.246,0
1539629019.403,34.180,36.621,38.086,12.695,48.828,0
1539629019.407,26.855,29.785,44.434,5.859,50.781,0
1539629019.410,16.602,27.832,46.387,13.672,53.223,0
1539629019.414,17.090,28.320,37.109,10.742,29.785,0
1539629019.418,20.020,27.832,38.574,3.418,-17.578,0
1539629019.422,23.438,31.250,34.180,2.441,13.184,0
1539629019.426,37.109,32.715,28.809,1.465,13.672,0
1539629019.430,36.133,34.180,31.738,2.441,25.391,0
1539629019.434,26.855,34.180,33.203,6.836,-11.230,0
1539629019.438,37.598,27.832,32.227,6.836,16.113,0
1539629019.442,36.133,28.809,32.715,3.906,36.133,0
1539629019.446,33.691,31.738,39.062,7.324,16.602,0
1539629019.449,39.551,33.691,42.969,11.719,15.625,0
1539629019.453,36.621,34.668,43.945,13.672,-3.418,0
1539629019.457,29.785,32.227,41.016,18.066,57.129,0
1539629019.461,23.926,34.180,37.109,11.719,61.035,0
1539629019.465,24.414,35.156,42.480,3.418,28.320,0
1539629019.469,28.809,27.832,46.387,8.301,13.184,0
1539629019.473,21.484,26.367,41.504,10.742,29.785,0
1539629019.477,22.949,30.273,41.016,8.301,47.852,0
1539629019.481,29.785,32.227,41.504,14.160,13.184,0
1539629019.485,26.855,34.180,39.551,11.719,-22.949,0
1539629019.489,28.809,33.691,37.109,6.348,-2.930,0
1539629019.492,22.461,33.691,34.180,3.906,27.832,0
1539629019.496,25.391,37.109,35.156,4.395,34.668,0
1539629019.500,26.367,42.480,35.645,11.719,64.453,0
1539629019.504,11.230,41.016,38.574,3.418,107.422,0
1539629019.508,8.301,37.598,41.504,-6.348,83.984,0
1539629019.512,9.277,33.691,38.086,-4.395,16.113,0
1539629019.516,10.254,27.344,39.551,-0.488,71.777,0
1539629019.520,7.812,32.715,40.039,2.930,115.234,0
1539629019.524,13.672,39.551,44.922,1.465,49.316,0
1539629019.528,12.695,39.062,45.898,-1.953,50.293,0
1539629019.532,13.184,35.156,45.898,0.977,64.453,0
1539629019.535,17.090,32.227,46.387,0.000,56.152,0
1539629019.539,19.531,32.715,44.922,14.160,22.949,0
1539629019.543,22.949,30.762,44.922,29.297,15.137,0
1539629019.547,21.973,30.762,42.480,14.160,29.785,0
1539629019.551,34.180,33.691,40.527,12.207,1.953,0
1539629019.555,38.574,34.180,34.668,26.855,-16.602,0
1539629019.559,34.668,36.621,30.762,25.879,84.961,0
1539629019.563,29.297,37.598,36.621,18.555,73.730,0
1539629019.567,24.414,37.598,39.062,20.508,-11.719,0
1539629019.571,27.344,36.621,35.156,17.090,36.133,0
1539629019.574,29.785,33.691,33.691,23.438,85.449,0
1539629019.578,29.785,31.738,36.621,21.973,49.805,0
1539629019.582,29.785,31.738,39.551,17.578,8.301,0
1539629019.586,31.250,35.645,38.086,15.137,39.062,0
1539629019.590,30.762,34.668,34.668,9.766,24.902,0
1539629019.594,28.320,29.297,35.156,15.625,46.387,0
1539629019.598,36.133,28.809,36.133,14.160,25.391,0
1539629019.602,37.598,30.273,33.203,8.789,-1.465,0
1539629019.606,28.320,36.133,37.109,12.207,54.199,0
1539629019.610,33.691,35.156,40.527,17.578,43.457,0
1539629019.614,31.738,29.297,40.039,17.578,53.223,0
1539629019.617,27.832,29.297,38.086,8.789,50.781,0
1539629019.621,26.855,34.180,36.621,11.230,63.477,0
1539629019.625,24.414,35.156,37.598,2.441,70.801,0
1539629019.629,28.320,35.156,41.016,1.953,5.859,0
1539629019.633,24.414,35.156,35.645,15.137,10.254,0
1539629019.637,28.320,35.645,37.598,9.277,28.809,0
1539629019.641,35.156,34.180,48.828,14.648,6.348,0
1539629019.645,27.832,34.180,50.293,8.301,33.691,1
1539629019.649,24.902,32.715,46.387,-0.488,51.758,0
1539629019.653,22.461,30.762,44.922,13.672,18.066,0
1539629019.657,31.250,36.621,41.504,10.254,-20.020,0
1539629019.660,32.227,36.133,43.945,6.348,-30.273,0
1539629019.664,18.555,35.156,45.898,4.395,18.066,0
1539629019.668,16.113,36.133,39.062,7.324,-3.906,0
1539629019.672,17.090,37.109,42.480,15.625,-32.715,0
1539629019.676,19.531,34.180,42.480,10.254,16.602,0
1539629019.680,22.461,26.855,41.016,6.836,59.082,0
1539629019.684,19.531,27.344,43.457,11.230,36.621,0
1539629019.688,24.414,31.738,39.551,16.602,-8.301,0
1539629019.692,22.949,31.250,43.457,11.719,33.203,0
1539629019.696,24.902,31.250,45.410,10.742,40.527,0
1539629019.699,29.297,32.715,41.016,18.555,5.859,0
1539629019.703,21.973,32.715,38.574,20.508,38.086,0
1539629019.707,29.785,40.039,39.551,17.090,30.762,0
1539629019.711,33.691,40.527,38.086,14.648,48.828,0
1539629019.715,19.531,33.691,37.598,17.578,75.684,0
1539629019.719,21.973,35.645,41.504,27.832,99.609,0
1539629019.723,23.926,32.227,43.457,16.113,87.402,0
1539629019.727,27.832,30.273,43.457,3.418,39.551,0
1539629019.731,31.250,36.133,42.969,14.160,-24.902,0
1539629019.735,23.438,37.109,41.992,15.625,-23.438,0
1539629019.739,26.367,34.180,42.480,10.254,22.949,0
1539629019.742,33.691,37.109,52.246,17.090,69.824,0
1539629019.746,34.180,41.016,51.270,5.859,91.309,0
1539629019.750,31.738,36.621,39.551,0.000,-12.207,0
1539629019.754,29.297,33.203,40.039,11.719,8.789,0
1539629019.758,29.785,34.668,41.992,11.230,63.965,0
1539629019.762,26.855,36.133,42.480,6.348,11.230,0
1539629019.766,23.926,35.156,44.922,1.465,-8.301,0
1539629019.770,33.203,38.086,44.922,-0.977,43.945,0
1539629019.774,41.016,41.016,40.527,1.465,44.434,0
1539629019.778,26.855,36.133,36.621,5.371,0.000,0
1539629019.782,26.367,34.180,37.109,5.371,1.953,0
1539629019.785,33.203,32.715,32.715,4.883,-6.348,0
1539629019.789,26.855,32.227,33.691,13.184,36.133,0
1539629019.793,29.297,34.180,41.992,14.648,62.988,0
1539629019.797,40.527,38.574,45.898,1.953,52.734,0
1539629019.801,33.203,41.504,44.434,-6.836,27.832,0
1539629019.805,26.367,38.574,43.457,-3.906,49.805,0
1539629019.809,28.320,37.598,39.551,0.488,57.129,0
1539629019.813,22.949,37.598,34.668,-5.859,38.086,0
1539629019.817,31.738,35.156,32.715,-2.441,49.805,0
1539629019.821,24.414,33.691,35.645,10.254,32.227,0
1539629019.824,20.020,38.086,31.250,17.090,42.969,0
1539629019.828,21.973,40.527,25.391,5.859,57.617,0
1539629019.832,26.855,39.551,32.715,0.977,4.883,0
1539629019.836,22.461,38.086,36.133,0.977,38.086,0
1539629019.840,15.137,35.645,34.180,-4.883,59.082,0
1539629019.844,20.508,39.551,32.227,-6.836,-42.969,0
1539629019.848,22.461,43.457,37.598,-4.883,-27.832,0
1539629019.852,27.832,38.574,40.527,3.906,15.625,0
1539629019.856,32.227,36.621,35.645,0.977,-14.648,0
1539629019.860,30.273,36.621,35.156,-6.836,38.086,0
1539629019.864,20.996,34.180,33.691,-3.906,49.805,0
1539629019.867,25.879,35.645,31.738,3.418,26.367,0
1539629019.871,35.645,38.086,32.227,20.020,5.859,0
1539629019.875,29.297,43.457,37.598,13.184,-19.043,0
1539629019.879,27.832,42.480,36.621,0.977,12.207,0
1539629019.883,24.414,33.691,33.691,11.230,60.059,0
1539629019.887,25.879,36.621,40.039,6.348,84.473,0
1539629019.891,25.879,41.016,40.039,2.930,46.875,0
1539629019.895,23.926,36.133,37.109,8.301,71.289,0
1539629019.899,27.344,36.621,31.738,8.789,64.941,0
1539629019.903,28.320,42.969,31.250,8.789,6.836,0
1539629019.907,33.691,44.434,33.691,8.789,-5.371,0
1539629019.910,29.785,38.574,31.250,14.160,-38.086,0
1539629019.914,26.367,38.574,34.668,6.836,-50.781,0
1539629019.918,24.902,46.875,38.086,0.000,14.160,0
1539629019.922,25.391,46.387,42.480,5.859,71.289,0
1539629019.926,33.691,38.574,42.480,7.812,129.883,0
1539629019.930,35.645,37.598,38.574,7.812,101.562,0
1539629019.934,24.902,39.062,33.691,10.742,64.941,0
1539629019.938,26.855,37.109,30.762,13.184,85.938,0
1539629019.942,33.691,36.621,36.621,17.090,29.785,0
1539629019.946,31.738,38.086,38.574,11.719,23.438,0
1539629019.949,21.973,36.621,30.273,10.254,31.738,0
1539629019.953,31.738,38.574,29.785,13.184,6.348,0
1539629019.957,47.852,36.133,31.250,11.230,-39.062,0
1539629019.961,32.715,32.715,29.785,9.277,-20.996,0
1539629019.965,20.020,37.598,31.250,2.441,58.594,0
1539629019.969,27.344,40.527,33.203,-2.441,39.551,0
1539629019.973,33.691,36.621,31.738,10.742,47.363,0
1539629019.977,29.785,33.691,29.785,9.766,72.266,0
1539629019.981,26.367,38.574,37.598,4.883,24.902,0
1539629019.985,29.297,40.527,45.410,14.648,-9.277,0
1539629019.989,27.832,36.621,41.504,8.789,0.000,0
1539629019.992,24.902,35.156,33.203,-5.859,22.949,0
1539629019.996,28.320,34.668,33.203,-0.977,79.102,0
1539629020.000,33.203,36.133,36.621,5.371,61.035,0
1539629020.004,37.598,37.109,33.691,3.906,-0.977,0
1539629020.008,20.996,36.621,31.738,1.953,16.113,0
1539629020.012,20.020,32.715,27.832,-1.465,34.180,0
1539629020.016,28.320,35.156,25.391,2.930,42.480,0
1539629020.020,19.043,40.039,26.855,0.000,40.039,0
1539629020.024,15.625,36.133,24.902,-5.371,34.180,0
1539629020.028,33.203,32.715,23.926,-0.977,36.621,0
1539629020.032,28.320,31.250,22.949,-2.441,42.969,0
1539629020.035,26.367,29.785,20.996,4.395,86.426,0
1539629020.039,32.715,31.738,19.531,8.789,66.406,0
1539629020.043,27.344,32.715,22.461,7.812,41.992,0
1539629020.047,29.297,32.227,29.785,13.184,62.012,0
1539629020.051,24.414,29.785,31.250,20.996,98.633,0
1539629020.055,20.020,28.320,26.367,16.602,49.316,0
1539629020.059,29.297,34.180,27.344,6.836,24.902,0
1539629020.063,26.367,38.086,27.832,7.812,17.090,0
1539629020.067,22.461,38.086,22.949,20.996,38.086,0
1539629020.071,32.227,37.109,20.996,24.902,46.387,0
1539629020.074,34.668,31.250,26.367,16.113,5.859,0
1539629020.078,38.574,23.438,26.855,17.578,4.395,0
1539629020.082,38.086,20.508,23.438,16.602,19.531,0
1539629020.086,39.062,23.438,28.809,21.973,-7.324,0
1539629020.090,33.691,25.879,34.180,23.926,0.000,0
1539629020.094,17.090,23.926,24.902,16.602,-18.066,0
1539629020.098,23.926,23.438,19.531,23.926,8.789,0
1539629020.102,36.621,25.391,20.020,29.297,49.805,0
1539629020.106,34.668,25.391,20.508,20.996,11.719,0
1539629020.110,21.973,28.320,23.438,27.344,58.594,0
1539629020.114,15.137,32.227,22.461,13.672,82.520,0
1539629020.117,20.020,28.809,24.902,3.418,66.895,0
1539629020.121,19.531,26.367,27.832,6.836,23.438,0
1539629020.125,21.484,26.367,21.973,4.395,-17.578,0
1539629020.129,25.391,25.391,21.484,11.230,49.316,0
1539629020.133,23.438,23.438,26.855,13.184,73.730,0
1539629020.137,16.113,19.043,27.832,8.301,55.664,0
1539629020.141,17.090,21.973,33.203,11.230,62.988,0
1539629020.145,24.902,28.320,34.180,13.672,66.895,0
1539629020.149,31.738,29.785,27.832,12.207,70.312,0
1539629020.153,26.367,34.668,25.879,8.789,71.289,0
1539629020.157,16.602,34.668,20.996,7.812,81.055,0
1539629020.160,21.484,32.715,21.973,10.742,81.543,0
1539629020.164,26.855,33.203,29.297,13.184,59.082,0
1539629020.168,28.809,30.762,31.250,15.137,45.410,0
1539629020.172,29.785,32.227,31.738,8.789,49.805,0
1539629020.176,33.203,33.691,35.645,7.812,83.984,0
1539629020.180,35.156,33.691,38.086,10.254,70.801,0
1539629020.184,42.480,38.086,35.645,7.324,1.465,0
1539629020.188,39.551,42.969,32.715,5.859,5.859,0
1539629020.192,23.438,37.598,32.227,4.883,69.824,0
1539629020.196,18.066,31.738,36.133,-4.883,38.086,0
1539629020.199,20.020,32.227,39.551,-2.930,9.277,0
1539629020.203,20.996,31.250,39.551,12.207,37.109,0
1539629020.207,27.832,28.809,37.598,11.230,43.945,0
1539629020.211,37.109,25.391,39.551,11.719,36.133,0
1539629020.215,36.621,26.367,39.551,13.672,8.301,0
1539629020.219,30.762,29.785,35.645,15.625,-16.113,0
1539629020.223,28.809,29.297,34.668,18.066,12.207,0
1539629020.227,40.039,32.227,34.668,17.090,51.270,0
1539629020.231,44.434,33.203,35.156,16.602,9.277,0
1539629020.235,37.109,33.203,28.809,10.742,-47.852,0
1539629020.239,32.227,33.691,31.250,22.949,27.344,0
1539629020.242,27.832,32.227,36.621,29.785,90.820,0
1539629020.246,26.855,31.250,30.273,16.113,85.449,0
1539629020.250,31.738,32.715,34.668,16.113,41.016,0
1539629020.254,33.203,34.668,29.297,16.602,41.992,0
1539629020.258,34.180,41.016,19.043,7.812,23.926,0
1539629020.262,30.273,41.504,22.949,16.602,25.879,0
1539629020.266,25.391,32.715,29.297,23.438,41.016,0
1539629020.270,30.762,34.180,37.598,26.855,67.383,0
1539629020.274,38.086,34.668,38.086,25.879,26.367,0
1539629020.278,27.344,30.762,35.156,16.602,-8.789,0
1539629020.282,20.020,36.621,33.691,17.090,0.000,0
1539629020.285,23.438,38.086,41.504,17.578,47.852,0
1539629020.289,28.809,36.133,39.551,12.207,128.906,0
1539629020.293,29.785,37.598,30.273,11.230,49.316,0
1539629020.297,34.180,37.109,36.133,11.230,-27.344,0
1539629020.301,28.809,35.645,40.527,13.672,5.859,0
1539629020.305,23.438,33.203,40.527,18.066,58.105,0
1539629020.309,26.855,32.715,40.527,14.648,19.531,0
1539629020.313,25.391,34.668,35.156,12.695,-21.973,0
1539629020.317,31.250,37.109,36.621,22.461,21.973,0
1539629020.321,36.133,30.762,42.969,21.973,64.453,0
1539629020.324,30.273,23.438,36.133,10.254,48.828,0
1539629020.328,25.879,29.297,38.086,14.160,41.992,0
1539629020.332,31.250,36.133,44.434,29.785,78.613,0
1539629020.336,33.203,37.109,38.086,36.133,58.594,0
1539629020.340,35.645,36.133,35.156,26.367,48.340,0
1539629020.344,34.180,33.691,39.062,24.414,20.508,0
1539629020.348,31.250,32.227,38.086,18.555,2.930,0
1539629020.352,33.203,37.598,44.434,13.672,15.625,0
1539629020.356,33.203,38.574,40.527,15.625,17.578,0
1539629020.360,31.738,33.203,31.738,15.137,57.129,0
1539629020.364,35.156,31.250,39.551,9.766,86.914,0
1539629020.367,33.691,33.203,42.969,4.395,61.523,0
1539629020.371,27.344,35.156,40.039,0.000,19.043,0
1539629020.375,27.832,33.203,42.480,0.000,4.395,0
1539629020.379,27.344,35.645,40.527,0.000,-3.906,0
1539629020.383,27.832,37.109,36.133,8.301,-40.527,0
1539629020.387,32.715,30.762,40.527,15.625,19.043,0
1539629020.391,33.203,30.273,40.527,12.207,60.547,0
1539629020.395,29.297,37.109,41.016,10.742,32.715,0
1539629020.399,28.320,36.133,40.039,13.184,44.922,0
1539629020.403,22.949,31.250,41.016,15.625,12.695,0
1539629020.407,21.484,32.715,41.992,8.301,-23.926,0
1539629020.410,24.902,36.133,41.504,14.648,26.367,0
1539629020.414,30.273,38.086,44.922,19.043,41.016,0
1539629020.418,29.785,36.133,41.016,12.695,34.668,0
1539629020.422,38.086,31.250,39.062,14.160,0.488,0
1539629020.426,48.828,29.785,42.480,15.625,20.996,0
1539629020.430,31.250,32.715,41.504,17.090,95.703,0
1539629020.434,29.785,36.621,41.992,19.043,107.910,0
1539629020.438,31.250,37.109,41.992,17.090,43.945,0
1539629020.442,28.809,39.551,42.480,15.625,-5.859,0
1539629020.446,32.227,35.645,45.410,21.484,39.551,0
1539629020.449,31.250,30.762,45.410,14.648,52.246,0
1539629020.453,38.574,35.156,42.969,15.625,40.527,0
1539629020.457,44.434,33.691,42.480,12.207,33.691,0
1539629020.461,33.203,31.738,44.922,5.859,17.578,0
1539629020.465,26.367,32.715,51.270,13.672,-19.531,0
1539629020.469,29.297,29.785,45.410,19.043,-14.160,0
1539629020.473,36.133,33.691,36.621,20.508,10.254,0
1539629020.477,31.250,35.645,39.062,9.277,57.617,0
1539629020.481,20.996,31.738,39.551,6.348,103.516,0
1539629020.485,28.809,32.227,41.016,20.508,60.059,0
1539629020.489,33.203,34.180,44.922,22.461,25.879,0
1539629020.492,31.250,38.086,40.039,22.461,38.086,0
1539629020.496,32.715,43.457,35.645,22.461,59.082,0
1539629020.500,28.809,44.434,37.598,16.602,26.367,0
1539629020.504,26.855,37.109,31.250,20.508,25.391,0
1539629020.508,36.621,29.785,31.738,25.879,69.824,0
1539629020.512,30.273,26.855,32.227,16.113,51.270,0
1539629020.516,24.414,27.832,31.250,9.277,47.852,0
1539629020.520,33.203,29.785,30.762,16.602,10.254,0
1539629020.524,35.156,34.180,29.785,13.672,27.832,0
1539629020.528,40.527,33.203,29.297,10.254,35.645,0
1539629020.532,36.133,27.832,34.668,18.066,4.395,0
1539629020.535,30.273,27.344,27.832,16.113,42.480,0
1539629020.539,33.203,25.391,20.508,17.578,69.336,0
1539629020.543,31.738,25.391,30.273,13.184,-0.977,0
1539629020.547,27.344,27.832,33.691,5.371,24.902,0
1539629020.551,37.598,29.297,37.109,13.184,17.090,0
1539629020.555,39.062,28.320,39.551,14.648,-29.297,0
1539629020.559,38.574,29.297,36.621,12.695,-21.973,0
1539629020.563,39.551,29.297,32.227,9.277,-82.031,0
1539629020.567,31.250,29.297,33.203,2.930,-34.180,0
1539629020.571,19.043,29.297,34.668,5.859,9.766,0
1539629020.574,25.391,26.367,30.273,17.578,17.090,0
1539629020.578,34.668,25.879,29.785,14.648,17.090,0
1539629020.582,28.320,29.297,28.320,12.207,10.254,0
1539629020.586,29.297,32.227,29.785,20.020,45.898,0
1539629020.590,26.855,29.297,34.668,13.184,16.113,0
1539629020.594,25.879,27.832,34.180,2.441,57.617,0
1539629020.598,33.691,30.762,32.227,12.695,99.121,0
1539629020.602,46.387,33.691,35.156,20.996,11.230,0
1539629020.606,28.809,32.227,40.527,9.277,42.480,0
1539629020.610,11.230,32.715,40.527,10.254,100.098,0
1539629020.614,21.973,35.156,40.527,16.602,89.844,0
1539629020.617,26.367,30.273,34.180,12.695,100.586,0
1539629020.621,26.367,26.855,29.297,4.395,32.227,0
1539629020.625,29.785,29.785,33.203,6.348,-15.625,0
1539629020.629,38.086,32.227,30.273,11.230,-6.348,0
1539629020.633,32.715,35.156,30.762,9.277,43.945,0
1539629020.637,22.461,36.133,29.297,11.230,83.496,0
1539629020.641,26.367,37.109,25.879,9.277,61.523,0
1539629020.645,25.879,35.645,29.785,6.836,13.184,0
1539629020.649,19.043,30.762,28.809,3.906,12.695,0
1539629020.653,17.090,33.691,30.273,7.324,9.277,0
1539629020.657,23.438,36.621,33.691,6.836,-2.930,0
1539629020.660,21.973,36.133,30.762,-2.441,27.344,0
1539629020.664,24.414,39.062,29.785,7.324,29.785,0
1539629020.668,19.043,36.621,30.273,10.742,38.086,0
1539629020.672,19.043,35.156,25.879,-1.465,79.590,0
1539629020.676,31.250,38.574,30.273,6.836,67.383,0
1539629020.680,19.043,41.992,34.668,12.207,31.250,0
1539629020.684,21.973,41.992,43.457,19.043,79.102,0
1539629020.688,32.715,38.086,44.922,20.996,87.402,0
1539629020.692,33.203,40.039,34.668,7.324,69.336,0
1539629020.696,26.367,38.086,40.527,14.648,55.176,0
1539629020.699,29.297,36.133,42.480,24.902,72.754,0
1539629020.703,31.250,36.621,39.551,14.160,122.070,0
1539629020.707,37.598,37.598,41.992,8.789,78.125,0
1539629020.711,47.852,38.086,41.992,9.277,38.086,0
1539629020.715,30.273,32.715,40.039,10.742,26.855,0
1539629020.719,29.297,32.715,37.598,14.160,7.812,0
1539629020.723,42.480,37.598,44.434,14.160,53.223,0
1539629020.727,35.645,37.598,48.828,8.789,94.727,0
1539629020.731,23.438,40.527,45.410,10.254,72.266,0
1539629020.735,20.508,41.504,53.711,16.113,20.996,0
1539629020.739,24.414,38.086,55.664,17.578,-4.883,0
1539629020.742,30.762,34.668,46.875,24.902,36.133,0
1539629020.746,28.809,34.180,43.945,27.832,24.414,0
1539629020.750,28.809,36.133,41.504,17.090,-10.254,0
1539629020.754,31.250,37.598,43.457,18.066,-24.414,0
1539629020.758,35.645,44.434,47.363,17.578,6.836,0
1539629020.762,38.086,41.504,43.457,8.789,35.156,0
1539629020.766,23.926,34.180,47.852,7.812,32.227,0
1539629020.770,19.043,38.574,54.199,10.742,12.695,0
1539629020.774,34.668,40.527,51.270,13.672,-31.250,0
1539629020.778,33.203,40.527,50.293,25.391,7.324,0
1539629020.782,30.273,36.133,54.199,26.367,67.871,0
1539629020.785,37.598,35.645,53.711,15.137,75.195,0
1539629020.789,34.668,38.574,49.805,9.766,35.645,0
1539629020.793,32.227,38.574,48.828,12.695,25.879,0
1539629020.797,30.762,39.551,48.828,13.184,27.832,0
1539629020.801,26.855,39.551,42.969,22.461,48.340,0
1539629020.805,31.250,39.062,39.551,20.020,25.879,0
1539629020.809,35.645,41.992,46.387,11.719,6.836,0
1539629020.813,29.297,42.480,47.852,16.113,87.891,0
1539629020.817,24.414,41.504,41.016,9.277,34.180,0
1539629020.821,26.855,39.551,42.969,7.812,16.602,0
1539629020.824,27.344,39.062,39.551,3.906,33.691,0
1539629020.828,28.320,39.062,33.203,-4.395,17.578,0
1539629020.832,21.973,33.203,34.668,2.441,-2.930,0
1539629020.836,18.555,31.738,30.273,6.836,-2.930,0
1539629020.840,24.414,33.203,26.367,-6.348,16.602,0
1539629020.844,26.855,30.762,32.227,-6.836,38.574,0
1539629020.848,34.668,34.180,39.551,4.395,-1.953,0
1539629020.852,39.551,34.180,40.039,3.906,-30.273,0
1539629020.856,32.227,30.273,41.992,12.207,33.691,0
1539629020.860,27.832,28.809,48.828,17.090,-3.418,0
1539629020.864,29.785,25.879,44.434,4.395,-5.859,0
1539629020.867,38.086,29.785,42.480,0.488,40.039,0
1539629020.871,37.109,30.762,43.457,2.441,42.969,0
1539629020.875,23.438,25.879,37.598,5.371,-9.277,0
1539629020.879,17.578,25.879,33.691,8.789,-6.836,0
1539629020.883,15.137,28.809,42.969,9.277,28.320,0
1539629020.887,19.043,35.156,44.922,7.812,48.828,0
1539629020.891,25.879,36.621,41.992,7.812,15.625,1
1539629020.895,34.180,31.738,44.434,13.672,-0.488,0
1539629020.899,38.574,33.691,44.434,14.160,66.895,0
1539629020.903,29.297,36.133,49.316,8.789,97.168,0
1539629020.907,21.973,34.180,52.734,7.812,86.914,0
1539629020.910,31.738,33.203,45.410,1.953,52.246,0
1539629020.914,39.062,34.668,42.480,5.371,13.672,0
1539629020.918,42.969,33.691,45.898,9.766,19.531,0
1539629020.922,35.645,32.227,44.434,8.789,25.391,0
1539629020.926,16.113,30.762,44.434,2.441,-0.488,0
1539629020.930,11.719,28.809,52.734,-5.371,-15.625,0
1539629020.934,21.973,25.391,50.781,5.371,18.066,0
1539629020.938,19.043,30.273,46.875,3.418,16.113,0
1539629020.942,20.020,35.645,45.410,0.488,5.859,0
1539629020.946,15.137,28.809,42.480,3.418,0.977,0
1539629020.949,16.113,22.949,44.922,14.160,-5.371,0
1539629020.953,30.762,28.320,42.480,21.973,13.184,0
1539629020.957,23.438,31.250,43.457,13.184,0.488,0
1539629020.961,34.668,27.832,44.922,23.926,-14.160,0
1539629020.965,33.691,27.832,45.410,25.391,11.719,0
1539629020.969,24.902,32.715,51.270,11.230,50.781,0
1539629020.973,26.855,32.715,51.270,11.719,57.129,0
1539629020.977,30.273,27.344,47.852,9.766,22.461,0
1539629020.981,31.250,30.273,44.434,11.719,33.203,0
1539629020.985,23.926,33.203,39.551,12.207,42.969,0
1539629020.989,13.672,34.180,41.504,12.695,57.617,0
1539629020.992,15.625,32.227,42.480,13.184,80.566,0
1539629020.996,24.414,28.320,41.016,9.766,83.984,0
1539629021.000,25.879,29.785,41.504,9.277,70.801,0
1539629021.004,22.461,29.785,40.039,18.066,65.918,0
1539629021.008,26.855,31.250,43.945,20.996,1.465,0
1539629021.012,32.715,35.156,47.852,7.324,-1.953,0
1539629021.016,30.273,32.227,39.062,1.465,6.836,0
1539629021.020,34.668,32.227,39.551,0.000,7.324,0
1539629021.024,36.133,32.715,38.086,9.766,-7.324,0
1539629021.028,26.855,31.250,40.527,16.113,-27.344,0
1539629021.032,26.367,31.738,46.875,9.277,41.016,0
1539629021.035,28.320,31.250,45.898,9.766,45.410,0
1539629021.039,28.320,31.250,43.945,7.812,-17.578,0
1539629021.043,32.715,35.645,44.434,-0.488,-18.066,0
1539629021.047,36.133,36.621,46.875,-2.441,41.992,0
1539629021.051,33.691,33.691,46.387,0.000,39.062,0
1539629021.055,30.273,34.668,53.223,-4.883,12.207,0
1539629021.059,34.180,38.086,52.246,-6.348,17.090,0
1539629021.063,39.062,38.574,44.922,1.953,-17.578,0
1539629021.067,35.156,40.039,47.852,4.395,-22.949,0
1539629021.071,35.645,41.016,50.293,6.348,-17.090,0
1539629021.074,29.785,39.062,43.457,10.742,26.855,0
1539629021.078,19.531,38.574,39.062,7.324,81.543,0
1539629021.082,20.508,41.504,46.875,2.930,70.312,0
1539629021.086,34.180,41.504,50.293,8.301,89.844,0
1539629021.090,34.180,40.039,46.875,6.348,107.910,0
