timestamps,TP9,AF7,AF8,TP10,Right AUX,Marker0
1539618007.637,63.965,12.695,26.367,39.551,-19.531,0
1539618007.641,69.824,16.113,32.227,51.758,12.207,0
1539618007.645,110.840,41.504,19.043,101.562,22.461,0
1539618007.649,67.871,39.062,16.113,103.027,16.602,0
1539618007.653,66.406,36.133,20.508,96.191,49.316,0
1539618007.657,91.309,47.852,16.602,90.332,47.852,0
1539618007.661,69.336,37.109,22.949,54.199,97.168,0
1539618007.665,121.094,17.578,12.207,107.422,54.688,0
1539618007.669,76.172,29.297,12.695,106.445,34.668,0
1539618007.673,43.457,35.156,13.184,64.941,63.477,0
1539618007.676,131.348,23.926,17.090,97.168,-16.602,0
1539618007.680,104.980,23.926,24.414,103.027,-23.438,2
1539618007.684,75.684,40.039,20.020,100.098,-8.301,0
1539618007.688,90.820,56.152,10.254,60.547,-6.348,0
1539618007.692,62.988,51.758,26.367,52.734,43.457,0
1539618007.696,69.336,52.734,27.832,82.520,20.020,0
1539618007.700,94.238,35.645,7.812,81.543,-22.461,0
1539618007.704,121.094,23.438,28.320,121.582,12.207,0
1539618007.708,104.004,22.461,35.156,108.398,24.414,0
1539618007.712,95.215,37.598,20.996,84.961,50.781,0
1539618007.716,99.609,45.410,21.484,96.191,105.957,0
1539618007.719,110.840,54.688,16.602,97.168,65.430,0
1539618007.723,97.168,53.223,19.043,74.219,11.719,0
1539618007.727,71.289,39.062,25.391,75.195,0.000,0
1539618007.731,76.660,45.898,35.645,66.895,17.090,0
1539618007.735,62.012,42.480,32.227,67.383,30.273,0
1539618007.739,35.645,55.176,21.484,64.453,26.855,0
1539618007.743,55.176,53.711,19.531,80.566,38.086,0
1539618007.747,93.262,39.062,26.855,74.219,41.504,0
1539618007.751,83.008,44.922,22.461,48.828,65.430,0
1539618007.755,78.125,43.457,28.809,85.938,79.102,0
1539618007.758,62.012,48.828,39.062,77.148,-11.719,0
1539618007.762,50.781,51.758,20.508,63.965,35.156,0
1539618007.766,48.828,43.945,25.879,58.594,90.820,0
1539618007.770,59.082,45.898,40.039,68.359,42.969,0
1539618007.774,66.895,60.547,20.996,69.336,56.641,0
1539618007.778,58.105,60.059,25.879,54.199,-21.484,0
1539618007.782,48.340,48.340,30.273,67.871,-16.602,0
1539618007.786,45.410,44.434,22.461,39.062,59.082,0
1539618007.790,58.594,50.781,21.484,27.832,23.926,0
1539618007.794,73.242,46.387,34.180,62.012,21.973,0
1539618007.798,60.059,56.152,24.902,42.969,-18.555,0
1539618007.801,42.480,60.059,29.297,31.250,0.488,0
1539618007.805,47.852,46.875,37.598,55.664,48.828,0
1539618007.809,39.062,49.805,26.855,62.012,20.996,0
1539618007.813,27.832,48.340,27.832,52.246,-13.184,0
1539618007.817,20.996,48.340,32.227,41.504,51.270,0
1539618007.821,25.391,53.711,43.945,36.621,49.316,0
1539618007.825,41.504,50.781,50.781,61.035,49.805,0
1539618007.829,33.203,44.922,50.293,55.664,86.914,0
1539618007.833,27.832,44.434,40.039,53.711,89.355,0
1539618007.837,60.059,56.152,32.715,75.684,125.488,0
1539618007.841,58.594,51.758,28.320,54.688,69.824,0
1539618007.844,44.922,45.898,19.043,49.316,-19.043,0
1539618007.848,32.227,51.270,30.273,34.668,-12.207,0
1539618007.852,45.410,57.129,47.852,38.086,-15.625,0
1539618007.856,43.457,57.129,37.598,54.199,1.465,0
1539618007.860,34.668,56.641,33.691,46.387,44.922,0
1539618007.864,62.012,58.594,34.180,41.504,25.879,0
1539618007.868,48.340,56.641,41.992,20.020,22.949,0
1539618007.872,60.547,54.199,40.527,28.809,16.113,0
1539618007.876,50.293,54.199,38.086,49.316,39.551,0
1539618007.880,21.484,56.152,39.551,30.273,81.055,0
1539618007.883,41.504,48.828,40.527,36.133,41.504,0
1539618007.887,45.898,50.293,41.504,61.035,58.594,0
1539618007.891,20.508,52.734,37.109,48.828,14.160,0
1539618007.895,36.133,49.316,43.945,44.434,-41.504,0
1539618007.899,20.020,52.734,41.992,48.340,76.172,0
1539618007.903,0.000,51.270,40.527,39.062,117.188,0
1539618007.907,39.062,45.410,40.039,39.062,64.941,0
1539618007.911,36.621,45.410,26.367,46.387,61.523,0
1539618007.915,20.996,38.574,37.109,46.875,57.617,0
1539618007.919,17.578,41.992,41.504,49.316,60.547,0
1539618007.923,37.109,44.922,30.762,71.777,20.996,0
1539618007.926,53.711,42.480,32.227,62.500,10.254,0
1539618007.930,47.363,42.969,32.715,47.852,67.871,0
1539618007.934,56.152,45.898,36.621,51.270,91.797,0
1539618007.938,49.316,42.480,40.039,48.828,79.102,0
1539618007.942,48.340,45.898,40.039,46.387,50.293,0
1539618007.946,60.059,47.852,28.320,54.199,29.297,0
1539618007.950,44.922,45.898,33.203,65.918,25.879,0
1539618007.954,38.574,44.922,39.551,53.223,9.766,0
1539618007.958,43.457,50.293,34.180,47.363,3.906,0
1539618007.962,38.574,54.199,36.621,48.828,23.438,0
1539618007.966,36.133,42.480,39.062,43.945,-1.465,0
1539618007.969,34.180,44.434,37.598,49.316,-14.648,0
1539618007.973,34.668,44.922,38.574,50.293,56.641,0
1539618007.977,27.832,41.992,39.062,43.945,112.793,0
1539618007.981,30.273,44.434,33.203,43.945,71.777,0
1539618007.985,20.020,43.945,38.086,40.527,74.707,0
1539618007.989,15.137,36.621,41.992,38.086,92.773,0
1539618007.993,31.250,39.062,39.551,36.621,37.109,0
1539618007.997,19.531,45.898,31.250,19.043,20.020,0
1539618008.001,9.766,44.922,30.273,10.254,40.039,0
1539618008.005,6.836,49.316,28.320,10.742,68.848,0
1539618008.008,8.789,47.852,28.809,5.371,62.988,0
1539618008.012,14.648,34.668,43.457,12.695,44.434,0
1539618008.016,-4.883,40.527,41.504,-1.465,50.293,0
1539618008.020,1.465,43.457,36.133,-16.602,113.281,0
1539618008.024,-12.695,41.992,30.762,-19.531,79.590,0
1539618008.028,-44.434,49.805,27.344,-35.645,5.859,0
1539618008.032,-33.691,50.781,39.551,-35.156,64.453,0
1539618008.036,-38.574,51.270,45.410,-39.062,56.641,0
1539618008.040,-60.059,52.734,49.316,-52.246,20.508,0
1539618008.044,-79.590,44.922,46.387,-68.359,46.875,0
1539618008.048,-83.984,41.504,25.879,-88.867,20.996,0
1539618008.051,-76.660,43.457,16.113,-86.426,13.672,0
1539618008.055,-83.008,41.992,28.809,-74.219,45.410,0
1539618008.059,-73.730,44.922,38.574,-69.336,93.750,0
1539618008.063,-61.035,49.316,39.551,-67.871,100.586,0
1539618008.067,-51.758,50.293,40.527,-59.570,16.602,0
1539618008.071,-50.293,48.828,41.992,-47.852,20.508,0
1539618008.075,-34.668,43.457,44.922,-36.133,11.230,0
1539618008.079,-25.391,40.039,40.039,-38.086,87.402,0
1539618008.083,-23.438,45.898,36.621,-42.969,138.672,0
1539618008.087,-20.508,52.246,36.621,-41.992,68.359,0
1539618008.091,-14.160,56.641,32.715,-26.367,49.316,0
1539618008.094,-8.789,52.246,35.645,-25.391,45.898,0
1539618008.098,-8.301,48.828,39.062,-20.996,25.879,0
1539618008.102,-10.254,50.781,41.992,-20.996,7.812,0
1539618008.106,-15.625,49.805,39.062,-23.438,45.410,0
1539618008.110,-8.301,46.875,40.039,-16.602,53.711,0
1539618008.114,4.395,49.805,38.086,-28.320,103.516,0
1539618008.118,-4.395,48.340,42.480,-20.996,55.176,0
1539618008.122,-9.277,58.594,44.922,-9.766,-13.672,0
1539618008.126,11.230,57.617,39.551,-6.348,12.207,0
1539618008.130,6.836,42.969,41.016,1.465,20.020,0
1539618008.133,2.441,41.016,45.410,3.418,28.809,0
1539618008.137,17.578,44.434,40.527,0.000,0.977,0
1539618008.141,20.996,44.434,35.645,13.184,-9.277,0
1539618008.145,12.695,47.852,36.621,24.902,-37.598,0
1539618008.149,14.648,47.852,38.574,17.578,-3.418,0
1539618008.153,11.719,45.410,35.645,5.859,7.324,0
1539618008.157,17.090,45.898,36.133,15.137,-0.488,0
1539618008.161,20.996,43.457,39.062,17.090,21.484,0
1539618008.165,23.438,47.363,36.133,11.230,29.785,0
1539618008.169,18.066,47.363,37.598,15.137,-12.207,0
1539618008.173,16.113,45.898,39.551,20.508,8.789,0
1539618008.176,23.926,47.852,37.598,19.043,65.918,0
1539618008.180,20.020,50.781,33.691,24.902,47.363,0
1539618008.184,31.250,48.340,33.691,26.855,-16.113,0
1539618008.188,32.715,42.969,41.504,24.902,-5.859,0
1539618008.192,11.719,45.898,40.039,9.277,1.465,0
1539618008.196,13.184,57.129,27.344,21.484,-33.203,0
1539618008.200,41.992,50.293,29.785,43.457,43.945,0
1539618008.204,43.457,44.922,28.809,36.621,50.781,0
1539618008.208,30.273,43.457,25.879,46.387,-3.906,0
1539618008.212,38.574,51.758,26.855,46.875,-10.254,0
1539618008.216,19.531,56.152,31.738,20.020,38.574,0
1539618008.219,30.762,48.340,36.621,8.301,52.246,0
1539618008.223,61.523,56.641,34.668,24.414,33.691,0
1539618008.227,47.363,46.387,45.898,33.203,58.594,0
1539618008.231,34.668,34.668,38.574,30.762,33.203,0
1539618008.235,29.785,48.340,42.969,33.691,24.414,0
1539618008.239,24.414,50.293,40.039,32.715,72.266,0
1539618008.243,9.277,41.016,36.133,15.625,43.945,0
1539618008.247,19.531,53.223,25.879,15.137,13.184,0
1539618008.251,23.438,48.828,18.555,29.785,3.418,0
1539618008.255,0.000,48.828,31.738,11.719,3.906,0
1539618008.258,30.762,53.711,28.320,12.695,49.316,0
1539618008.262,4.883,63.965,22.461,4.883,56.641,0
1539618008.266,-21.973,54.199,41.992,-18.066,36.621,0
1539618008.270,14.648,40.527,37.109,-4.883,-2.441,0
1539618008.274,41.504,47.363,13.184,13.672,37.109,0
1539618008.278,17.578,50.781,24.902,-5.371,64.941,0
1539618008.282,28.320,43.945,35.156,-3.418,31.738,0
1539618008.286,56.152,48.340,39.062,45.898,27.344,0
1539618008.290,14.160,54.688,61.523,20.020,-13.672,0
1539618008.294,67.871,23.438,59.570,42.480,-41.992,0
1539618008.298,57.617,39.551,37.598,52.246,33.203,0
1539618008.301,30.273,57.129,44.922,27.344,81.055,0
1539618008.305,41.016,45.410,38.086,39.551,16.602,0
1539618008.309,30.273,51.270,32.227,11.719,26.367,0
1539618008.313,57.617,49.805,36.133,28.320,48.340,0
1539618008.317,75.195,34.668,31.250,56.152,12.207,0
1539618008.321,71.289,25.879,42.480,35.156,40.527,0
1539618008.325,54.199,44.922,31.738,21.973,64.941,0
1539618008.329,75.195,36.133,25.879,51.270,16.113,0
1539618008.333,104.492,29.297,34.180,54.199,5.371,0
1539618008.337,87.402,35.645,29.297,58.594,20.020,0
1539618008.341,78.125,23.438,25.879,75.195,0.488,0
1539618008.344,80.566,32.715,32.227,62.012,-0.977,0
1539618008.348,62.988,37.598,40.039,48.828,-16.113,0
1539618008.352,58.594,41.504,37.598,53.711,-6.836,0
1539618008.356,57.617,35.645,31.738,55.176,2.441,0
1539618008.360,57.617,42.969,29.297,50.781,50.781,0
1539618008.364,61.523,45.410,28.320,61.035,92.285,0
1539618008.368,50.781,29.297,31.250,50.781,21.484,0
1539618008.372,44.434,35.156,34.668,37.598,-24.414,0
1539618008.376,48.828,30.762,34.180,37.109,-12.207,0
1539618008.380,50.781,26.855,34.180,48.828,10.742,0
1539618008.383,48.828,32.715,31.738,52.734,39.062,0
1539618008.387,43.945,34.668,26.855,42.480,66.406,0
1539618008.391,53.223,35.156,27.344,40.039,30.762,0
1539618008.395,72.266,33.691,30.762,56.641,-6.348,0
1539618008.399,72.754,35.645,32.715,62.012,26.855,0
1539618008.403,58.594,43.945,34.180,42.480,42.480,0
1539618008.407,53.711,44.434,37.598,30.273,40.039,0
1539618008.411,58.594,50.293,28.809,37.109,0.977,0
1539618008.415,58.594,52.734,29.297,41.504,-25.879,0
1539618008.419,60.547,51.758,29.297,33.203,41.504,0
1539618008.423,54.688,53.711,23.438,31.738,68.359,0
1539618008.426,47.363,51.270,26.855,36.621,10.742,0
1539618008.430,57.129,48.828,34.180,36.621,-19.531,0
1539618008.434,47.363,51.758,31.250,25.879,21.484,0
1539618008.438,33.203,48.340,28.320,26.367,71.289,0
1539618008.442,47.852,44.434,32.715,30.273,59.570,0
1539618008.446,52.246,51.270,27.832,33.203,44.434,0
1539618008.450,35.156,49.316,27.344,30.762,81.543,0
1539618008.454,38.086,46.387,33.203,24.414,52.734,0
1539618008.458,58.105,50.293,26.367,32.715,22.949,0
1539618008.462,64.453,51.758,30.762,48.340,79.102,0
1539618008.466,62.012,48.340,33.203,37.598,58.594,0
1539618008.469,58.594,47.852,25.879,24.414,-17.090,0
1539618008.473,61.035,50.293,36.133,45.898,-16.113,0
1539618008.477,55.664,49.805,37.598,45.898,54.199,0
1539618008.481,46.875,51.758,38.574,39.551,23.438,0
1539618008.485,41.016,51.758,41.504,38.574,3.418,0
1539618008.489,31.250,47.363,42.969,41.016,-1.465,0
1539618008.493,33.691,47.363,41.504,41.504,-7.812,0
1539618008.497,43.945,47.852,41.504,40.039,41.016,0
1539618008.501,50.293,49.805,43.457,36.133,58.105,0
1539618008.505,51.758,47.852,42.480,20.996,67.871,0
1539618008.508,41.016,44.922,40.039,6.836,50.781,0
1539618008.512,46.875,50.293,34.180,23.926,64.453,0
1539618008.516,39.551,50.781,31.250,41.992,40.039,0
1539618008.520,37.598,45.410,30.762,26.855,19.043,0
1539618008.524,48.828,50.781,30.273,33.203,52.246,0
1539618008.528,52.734,53.223,30.273,51.270,40.039,0
1539618008.532,51.270,44.922,24.902,32.715,0.977,0
1539618008.536,43.945,40.527,31.738,27.832,46.387,0
1539618008.540,30.762,43.945,36.133,22.949,35.645,0
1539618008.544,23.438,47.363,28.320,14.160,17.578,0
1539618008.548,31.738,43.945,32.227,26.367,18.066,0
1539618008.551,42.969,42.969,29.297,17.578,2.441,0
1539618008.555,31.250,50.293,21.973,3.418,-10.742,0
1539618008.559,21.973,48.828,28.809,14.648,-16.602,0
1539618008.563,23.438,45.898,38.574,29.297,20.996,0
1539618008.567,23.438,47.852,39.062,23.438,60.547,0
1539618008.571,30.762,48.340,33.203,32.715,29.297,0
1539618008.575,36.621,46.875,33.203,34.180,-8.789,0
1539618008.579,32.715,45.410,36.133,22.949,40.039,0
1539618008.583,26.855,45.410,33.203,23.438,51.758,0
1539618008.587,26.855,43.457,31.250,9.766,7.324,0
1539618008.591,23.926,44.434,35.156,19.043,53.223,0
1539618008.594,26.855,41.016,38.086,31.738,68.359,0
1539618008.598,38.086,40.527,32.715,21.973,-39.062,0
1539618008.602,42.480,45.410,23.926,22.949,1.953,0
1539618008.606,34.668,48.340,29.785,26.367,98.145,0
1539618008.610,19.531,44.922,40.039,23.926,78.613,0
1539618008.614,18.555,35.645,37.598,23.438,33.691,0
1539618008.618,30.762,41.504,32.715,8.789,37.109,0
1539618008.622,21.484,40.039,31.738,10.254,75.684,0
1539618008.626,7.324,32.227,28.320,17.090,68.359,0
1539618008.630,9.277,40.039,24.902,13.184,49.805,0
1539618008.633,21.484,46.387,32.715,14.160,26.855,0
1539618008.637,19.043,44.434,35.645,7.324,42.480,0
1539618008.641,14.648,44.434,38.574,15.137,16.113,0
1539618008.645,28.809,49.805,39.551,29.297,32.715,0
1539618008.649,20.508,44.922,22.949,18.066,56.152,0
1539618008.653,14.160,38.086,17.578,12.207,15.625,0
1539618008.657,25.879,41.504,32.227,17.090,18.066,0
1539618008.661,29.297,44.434,41.016,17.090,39.062,0
1539618008.665,24.902,49.316,35.645,16.113,40.527,0
1539618008.669,20.996,46.875,34.668,23.926,-2.930,0
1539618008.673,23.438,43.457,36.133,35.645,34.180,0
1539618008.676,24.414,45.410,33.691,33.691,85.938,0
1539618008.680,20.996,45.410,35.156,41.504,38.574,0
1539618008.684,23.438,43.945,32.715,32.715,-6.348,0
1539618008.688,28.320,41.992,34.180,25.391,44.434,0
1539618008.692,28.809,42.969,36.621,27.832,94.727,0
1539618008.696,23.926,44.434,36.621,21.484,62.988,0
1539618008.700,27.832,46.387,45.410,28.320,40.527,0
1539618008.704,35.645,49.805,34.180,27.832,41.016,0
1539618008.708,31.738,46.875,25.879,21.484,24.902,0
1539618008.712,27.832,40.527,35.645,27.344,14.160,0
1539618008.716,35.156,42.480,30.762,20.508,32.715,0
1539618008.719,41.016,47.852,31.250,14.648,58.594,0
1539618008.723,38.574,43.945,35.156,15.625,56.641,0
1539618008.727,38.574,41.992,35.645,20.996,23.438,0
1539618008.731,34.180,44.922,35.645,24.414,6.836,0
1539618008.735,27.832,44.434,40.039,17.578,16.602,0
1539618008.739,25.879,43.945,37.109,25.879,5.371,0
1539618008.743,27.832,48.828,38.574,42.969,17.090,0
1539618008.747,27.344,46.875,40.527,38.574,42.969,0
1539618008.751,26.855,43.945,31.250,21.484,64.453,0
1539618008.755,29.297,43.945,30.762,25.391,52.246,0
1539618008.758,30.273,42.969,32.227,29.297,35.156,0
1539618008.762,30.762,43.945,34.668,33.691,41.504,0
1539618008.766,28.320,44.434,35.156,21.484,58.105,0
1539618008.770,24.902,45.410,34.180,26.367,78.613,0
1539618008.774,20.508,44.434,36.621,42.969,123.047,0
1539618008.778,16.602,46.875,38.574,27.832,14.648,0
1539618008.782,19.043,48.828,36.621,23.926,-20.996,0
1539618008.786,16.602,44.434,38.574,15.625,46.875,0
1539618008.790,23.438,42.969,41.504,17.578,13.184,0
1539618008.794,21.484,44.434,38.086,33.203,-8.789,0
1539618008.798,18.555,44.434,38.086,34.180,6.836,0
1539618008.801,27.344,48.340,32.715,28.809,-4.395,0
1539618008.805,41.504,53.223,25.391,16.602,-13.184,0
1539618008.809,35.645,46.875,27.344,19.531,-11.230,0
1539618008.813,29.297,36.621,26.367,31.250,18.066,0
1539618008.817,40.039,34.668,31.250,25.879,39.551,0
1539618008.821,43.457,46.875,42.969,37.598,56.152,0
1539618008.825,34.180,47.852,25.879,24.902,121.094,0
1539618008.829,37.598,38.086,10.254,9.766,75.195,0
1539618008.833,43.457,37.598,33.691,10.742,12.695,0
1539618008.837,23.926,34.668,45.410,21.484,-42.480,0
1539618008.841,18.066,41.016,41.992,28.809,-64.941,0
1539618008.844,32.227,48.340,40.527,28.320,26.855,0
1539618008.848,27.344,45.410,39.551,32.227,34.180,0
1539618008.852,14.648,44.434,36.621,27.832,20.508,0
1539618008.856,18.066,47.363,33.691,27.832,17.578,0
1539618008.860,24.902,43.945,36.133,28.320,23.926,0
1539618008.864,28.320,40.039,35.156,31.250,47.852,0
1539618008.868,26.855,41.016,37.109,23.438,13.184,0
1539618008.872,27.832,44.922,36.133,13.672,10.742,0
1539618008.876,22.949,43.457,33.203,20.020,21.484,0
1539618008.880,17.578,41.016,33.203,20.996,-6.836,0
1539618008.883,20.020,41.992,38.086,20.020,1.465,0
1539618008.887,24.414,38.086,38.086,20.020,50.781,0
1539618008.891,11.719,33.691,32.227,10.742,32.227,0
1539618008.895,19.043,44.434,35.645,20.020,28.809,0
1539618008.899,22.461,50.293,26.367,20.508,91.797,0
1539618008.903,20.020,52.246,29.785,20.020,63.965,0
1539618008.907,42.969,50.293,42.480,29.785,5.371,0
1539618008.911,35.156,37.598,36.133,32.715,12.695,0
1539618008.915,20.020,42.480,32.715,29.785,19.043,0
1539618008.919,41.504,45.410,33.203,18.066,31.250,0
1539618008.923,35.156,41.992,34.180,14.648,49.805,0
1539618008.926,23.926,43.945,33.203,17.578,47.363,0
1539618008.930,32.715,47.852,29.297,21.973,47.852,0
1539618008.934,25.879,42.480,29.785,18.066,50.781,0
1539618008.938,37.109,37.598,38.086,15.137,70.312,0
1539618008.942,35.156,42.969,39.551,23.926,14.160,0
1539618008.946,20.996,44.434,33.691,16.113,-38.574,0
1539618008.950,34.180,43.945,33.203,26.855,-14.160,0
1539618008.954,23.926,36.133,31.250,32.715,5.859,0
1539618008.958,19.531,25.879,26.855,12.695,22.949,0
1539618008.962,35.156,37.598,33.691,17.578,-26.367,0
1539618008.966,29.785,54.199,24.414,17.090,-22.461,1
1539618008.969,21.484,44.922,12.207,14.160,10.254,0
1539618008.973,23.926,34.668,31.250,26.367,30.273,0
1539618008.977,30.762,40.039,32.715,27.344,39.062,0
1539618008.981,33.203,43.457,25.391,18.066,-7.812,0
1539618008.985,27.832,35.645,34.180,22.461,36.621,0
1539618008.989,5.859,29.297,36.621,17.578,55.176,0
1539618008.993,11.230,39.062,36.133,8.789,12.695,0
1539618008.997,16.113,37.109,35.645,19.531,49.805,0
1539618009.001,11.719,29.785,33.691,7.812,28.809,0
1539618009.005,21.484,33.691,30.762,9.277,8.301,0
1539618009.008,27.832,38.574,31.250,21.973,30.273,0
1539618009.012,26.367,39.062,29.297,21.484,29.785,0
1539618009.016,27.344,31.738,26.367,23.438,35.156,0
1539618009.020,30.762,34.180,31.250,19.043,51.270,0
1539618009.024,27.344,44.922,33.203,20.996,18.555,0
1539618009.028,19.043,40.527,32.227,21.973,2.930,0
1539618009.032,21.973,35.156,33.203,11.719,13.672,0
1539618009.036,26.855,34.180,36.621,17.578,-10.254,0
1539618009.040,30.273,32.715,35.645,22.461,4.883,0
1539618009.044,26.367,33.203,33.203,26.367,41.992,0
1539618009.048,27.344,32.715,33.203,29.785,36.133,0
1539618009.051,28.320,35.156,33.691,23.926,30.762,0
1539618009.055,21.973,34.668,33.203,30.762,52.734,0
1539618009.059,23.438,30.762,36.621,31.250,83.496,0
1539618009.063,24.902,36.133,34.180,24.414,85.449,0
1539618009.067,22.461,42.480,29.297,26.855,36.133,0
1539618009.071,21.973,38.086,28.320,31.250,7.812,0
1539618009.075,14.648,28.320,25.391,20.996,65.430,0
1539618009.079,5.371,23.926,30.273,17.090,80.078,0
1539618009.083,5.371,28.809,35.645,16.113,35.645,0
1539618009.087,4.883,33.691,32.715,14.160,-5.859,0
1539618009.091,12.695,35.156,29.785,15.625,-6.348,0
1539618009.094,15.625,35.645,35.156,12.695,22.461,0
1539618009.098,17.090,40.039,40.039,20.996,20.508,0
1539618009.102,26.855,39.551,39.551,22.461,12.207,0
1539618009.106,28.809,31.738,39.551,33.203,37.109,0
1539618009.110,31.250,33.203,41.504,48.340,14.648,0
1539618009.114,41.016,43.457,35.645,44.922,20.996,0
1539618009.118,47.852,35.645,35.156,37.598,42.969,0
1539618009.122,43.457,22.949,31.738,34.668,58.105,0
1539618009.126,26.367,39.062,27.832,36.133,-0.488,0
1539618009.130,20.020,54.688,39.551,28.320,-28.809,0
1539618009.133,18.555,44.922,36.621,32.715,20.508,0
1539618009.137,12.207,42.480,28.809,34.180,30.762,0
1539618009.141,12.695,47.852,39.062,31.250,23.926,0
1539618009.145,10.254,43.457,45.410,28.320,53.223,0
1539618009.149,16.113,38.574,41.504,18.555,40.039,0
1539618009.153,21.484,35.645,37.109,17.578,40.527,0
1539618009.157,15.625,37.598,37.598,20.020,60.059,0
1539618009.161,9.766,48.828,37.598,9.277,67.383,0
1539618009.165,21.973,45.410,35.645,4.883,19.043,0
1539618009.169,37.598,40.039,37.598,28.320,15.625,0
1539618009.173,36.133,45.410,33.203,28.809,67.383,0
1539618009.176,20.508,40.527,26.855,17.090,46.875,0
1539618009.180,16.113,35.156,27.344,22.461,41.992,0
1539618009.184,17.090,40.039,38.574,23.438,41.992,0
1539618009.188,24.414,41.992,41.504,18.066,-21.484,0
1539618009.192,21.484,41.992,36.621,13.672,-15.625,0
1539618009.196,21.484,42.969,38.574,20.996,41.504,0
1539618009.200,33.691,42.969,40.039,33.691,31.250,0
1539618009.204,30.762,42.480,40.527,24.902,57.129,0
1539618009.208,38.574,41.992,45.410,16.602,81.543,0
1539618009.212,41.016,44.434,35.156,20.020,30.273,0
1539618009.216,31.250,47.852,29.297,21.484,49.805,0
1539618009.219,20.020,48.340,35.156,35.156,66.895,0
1539618009.223,26.367,38.574,33.203,25.879,62.500,0
1539618009.227,26.367,32.227,33.691,19.531,65.918,0
1539618009.231,26.855,40.039,32.227,34.668,63.965,0
1539618009.235,33.691,41.504,40.039,34.180,74.707,0
1539618009.239,37.598,34.180,42.969,38.086,42.969,0
1539618009.243,25.391,38.574,38.086,39.551,47.363,0
1539618009.247,32.715,45.410,35.645,41.992,34.180,0
1539618009.251,42.480,39.062,38.086,36.133,0.000,0
1539618009.255,27.344,41.992,40.039,22.461,5.371,0
1539618009.258,30.273,44.922,36.133,31.250,-20.508,0
1539618009.262,33.203,31.738,32.715,30.273,7.324,0
1539618009.266,25.879,37.109,36.621,15.625,61.035,0
1539618009.270,24.414,46.875,41.992,26.367,37.598,0
1539618009.274,22.461,40.039,33.691,23.926,35.156,0
1539618009.278,23.926,35.645,36.133,12.207,80.078,0
1539618009.282,30.273,37.109,42.969,20.508,64.453,0
1539618009.286,32.227,42.480,43.457,20.996,63.477,0
1539618009.290,26.855,42.969,40.039,11.719,72.754,0
1539618009.294,21.484,37.598,39.551,14.160,23.926,0
1539618009.298,35.156,37.109,39.551,33.691,11.719,0
1539618009.301,35.156,37.109,40.527,35.156,64.941,0
1539618009.305,31.250,37.109,41.016,23.926,65.918,0
1539618009.309,25.879,37.109,38.574,22.949,83.496,0
1539618009.313,21.484,35.645,37.598,34.180,103.516,0
1539618009.317,30.273,39.062,37.109,37.598,38.574,0
1539618009.321,37.109,39.062,37.109,32.227,74.707,0
1539618009.325,34.180,34.668,35.645,22.949,58.105,0
1539618009.329,28.320,35.645,33.203,13.184,3.906,0
1539618009.333,30.273,37.109,31.738,17.090,8.301,0
1539618009.337,31.250,35.645,35.156,22.461,35.645,0
1539618009.341,22.461,33.691,36.133,15.137,27.832,0
1539618009.344,17.090,34.668,33.203,17.090,0.488,0
1539618009.348,19.043,33.691,36.133,24.414,8.789,0
1539618009.352,36.621,38.086,31.250,32.227,-30.273,0
1539618009.356,42.480,36.621,24.902,34.668,28.809,0
1539618009.360,26.367,30.273,27.832,26.855,62.012,0
1539618009.364,31.738,37.109,33.691,25.391,20.996,0
1539618009.368,30.273,40.527,38.574,31.738,91.797,0
1539618009.372,25.391,40.527,36.621,37.598,26.367,0
1539618009.376,39.062,44.434,38.574,34.180,-36.621,0
1539618009.380,41.504,44.922,37.109,21.484,53.223,0
1539618009.383,41.504,46.387,31.738,21.973,77.637,0
1539618009.387,42.969,42.969,28.320,26.855,104.004,0
1539618009.391,34.180,31.250,32.227,25.391,57.129,0
1539618009.395,24.414,36.133,34.180,26.855,-14.160,0
1539618009.399,34.668,43.945,30.762,19.531,-20.508,0
1539618009.403,47.363,41.016,33.691,28.320,35.645,0
1539618009.407,40.527,40.039,30.273,27.832,141.113,0
1539618009.411,27.344,41.016,27.832,19.531,97.168,0
1539618009.415,20.996,43.457,26.367,20.996,32.227,0
1539618009.419,36.133,44.434,25.391,10.742,42.969,0
1539618009.423,37.598,43.945,36.621,12.695,45.410,0
1539618009.426,23.438,43.457,34.668,25.879,59.082,0
1539618009.430,22.461,42.480,26.367,16.113,41.016,0
1539618009.434,32.715,51.270,29.785,16.602,14.648,0
1539618009.438,30.762,50.781,35.645,34.180,-10.254,0
1539618009.442,39.062,44.922,31.250,30.762,32.227,0
1539618009.446,54.199,45.898,29.785,26.367,30.273,0
1539618009.450,43.945,49.805,33.691,31.250,21.484,0
1539618009.454,31.738,48.340,33.691,24.414,86.426,0
1539618009.458,36.621,41.992,26.855,19.531,89.355,0
1539618009.462,39.551,37.598,25.879,34.180,83.008,0
1539618009.466,34.180,44.434,25.879,33.691,107.910,0
1539618009.469,28.809,52.246,27.344,15.137,86.426,0
1539618009.473,36.621,46.387,32.227,22.949,52.734,0
1539618009.477,38.574,42.969,27.344,35.645,33.203,0
1539618009.481,35.645,40.039,34.668,29.785,-34.180,0
1539618009.485,43.457,40.039,40.039,34.668,-9.766,0
1539618009.489,48.828,50.293,49.316,47.852,31.738,0
1539618009.493,30.273,53.711,40.527,19.531,34.668,0
1539618009.497,27.344,52.246,28.809,1.953,45.898,0
1539618009.501,36.133,49.316,37.109,8.789,-10.742,0
1539618009.505,23.438,45.410,34.668,5.859,43.457,0
1539618009.508,22.949,45.410,37.109,14.160,100.098,0
1539618009.512,16.113,45.410,42.969,31.738,50.781,0
1539618009.516,15.137,46.387,38.086,29.297,42.969,0
1539618009.520,20.996,48.340,33.691,11.230,6.348,0
1539618009.524,19.531,53.711,29.785,5.371,11.230,0
1539618009.528,29.297,49.316,26.855,13.184,56.641,0
1539618009.532,30.762,41.016,31.250,22.461,23.926,0
1539618009.536,23.438,51.270,38.574,23.438,-5.859,0
1539618009.540,25.391,52.734,39.062,25.391,-1.953,0
1539618009.544,24.414,48.340,23.438,20.508,28.809,0
1539618009.548,21.973,46.387,22.949,16.602,25.879,0
1539618009.551,27.832,39.551,42.969,20.508,61.035,0
1539618009.555,29.297,37.598,47.852,16.602,13.672,0
1539618009.559,28.809,35.645,43.945,19.531,-26.855,0
1539618009.563,35.645,37.598,43.945,33.203,43.945,0
1539618009.567,30.762,53.711,37.109,29.785,35.645,0
1539618009.571,31.738,48.828,34.180,19.043,-12.207,0
1539618009.575,27.832,35.156,34.668,20.508,0.488,0
1539618009.579,24.902,43.457,27.344,9.277,41.992,0
1539618009.583,30.762,52.246,26.367,15.137,6.836,0
1539618009.587,23.438,49.805,34.180,27.832,-4.395,0
1539618009.591,25.391,48.340,31.738,21.484,-6.348,0
1539618009.594,31.738,49.316,29.297,16.113,-40.527,0
1539618009.598,35.645,45.898,33.203,19.531,37.598,0
1539618009.602,37.598,43.457,34.668,20.508,-14.648,0
1539618009.606,44.922,42.480,32.715,27.832,-19.043,0
1539618009.610,44.922,38.086,36.621,32.227,58.594,0
1539618009.614,33.203,38.086,37.598,22.949,-16.602,0
1539618009.618,35.645,41.504,32.227,21.484,-56.641,0
1539618009.622,40.527,42.969,33.691,30.273,-38.574,0
1539618009.626,36.621,42.969,37.109,33.203,-34.668,0
1539618009.630,34.668,44.434,30.273,23.438,-20.508,0
1539618009.633,44.434,42.969,26.367,11.719,-16.113,0
1539618009.637,40.039,40.039,30.762,11.230,45.898,0
1539618009.641,50.293,43.457,23.438,22.461,3.906,0
1539618009.645,49.805,43.945,24.902,30.762,-59.570,0
1539618009.649,22.949,39.551,34.668,23.926,19.531,0
1539618009.653,16.113,39.062,36.621,25.879,37.598,0
1539618009.657,25.391,41.504,39.062,20.996,-13.672,0
1539618009.661,34.180,37.598,41.992,32.227,-21.973,0
1539618009.665,20.508,35.645,42.480,35.645,11.719,0
1539618009.669,16.602,36.621,42.480,21.484,17.578,0
1539618009.673,22.461,36.133,42.969,24.902,26.367,0
1539618009.676,20.508,38.086,41.992,24.902,45.898,0
1539618009.680,26.855,38.574,41.016,27.832,36.133,0
1539618009.684,25.879,40.039,45.410,28.809,51.758,0
1539618009.688,26.367,40.039,43.457,25.879,72.266,0
1539618009.692,35.645,40.527,36.133,39.551,37.598,0
1539618009.696,35.645,43.457,33.203,35.645,28.809,0
1539618009.700,37.109,43.457,36.621,31.250,59.570,0
1539618009.704,41.504,41.016,41.992,44.434,32.715,0
1539618009.708,29.785,41.016,34.668,31.250,47.852,0
1539618009.712,29.785,44.434,32.227,24.414,76.660,0
1539618009.716,44.922,49.316,31.250,42.969,38.086,0
1539618009.719,37.109,36.621,27.832,35.645,53.223,0
1539618009.723,32.715,30.273,26.855,24.414,62.012,0
1539618009.727,27.832,39.551,26.367,27.344,45.410,0
1539618009.731,30.762,34.668,34.180,23.438,-1.953,0
1539618009.735,28.809,32.715,38.574,16.602,-4.395,0
1539618009.739,16.602,36.133,38.086,22.949,-3.906,0
1539618009.743,35.156,36.621,40.527,25.391,-18.066,0
1539618009.747,41.992,37.109,37.109,22.461,11.230,0
1539618009.751,24.902,35.645,36.133,30.273,39.062,0
1539618009.755,23.438,34.180,39.062,42.969,62.012,0
1539618009.758,33.691,32.715,39.062,35.156,53.711,0
1539618009.762,35.645,36.621,39.062,30.762,46.875,0
1539618009.766,35.645,41.992,41.992,33.203,19.043,0
1539618009.770,33.691,40.039,37.598,29.785,30.762,0
1539618009.774,19.531,34.180,33.691,25.391,65.430,0
1539618009.778,17.090,34.180,33.691,22.461,33.691,0
1539618009.782,27.832,38.086,32.227,30.273,37.598,0
1539618009.786,30.762,34.668,34.668,37.109,93.750,0
1539618009.790,29.785,33.691,37.109,33.691,73.242,0
1539618009.794,34.180,37.109,38.086,37.109,25.879,0
1539618009.798,30.273,41.992,35.645,35.645,25.879,0
1539618009.801,29.297,35.645,24.902,35.156,42.969,0
1539618009.805,38.086,31.738,20.020,31.738,57.617,0
1539618009.809,33.691,34.668,33.691,30.762,36.621,0
1539618009.813,32.715,34.180,41.016,20.020,25.879,0
1539618009.817,31.250,40.039,36.621,20.508,0.488,0
1539618009.821,21.484,40.527,42.480,43.457,-7.324,0
1539618009.825,24.902,36.133,41.016,39.551,45.410,0
1539618009.829,31.250,35.645,33.691,23.438,27.344,0
1539618009.833,31.250,32.227,30.762,18.555,43.457,0
1539618009.837,35.645,30.273,33.203,21.484,63.477,0
1539618009.841,20.996,37.109,42.969,31.738,34.668,0
1539618009.844,20.020,41.504,42.969,27.344,64.941,0
1539618009.848,36.621,37.598,32.227,25.391,13.672,0
1539618009.852,32.227,40.527,38.086,35.156,21.973,0
1539618009.856,30.273,38.574,41.016,33.203,51.270,0
1539618009.860,30.762,32.227,34.180,36.133,42.480,0
1539618009.864,31.738,41.016,34.180,36.133,70.312,0
1539618009.868,28.320,40.039,34.180,33.203,87.402,0
1539618009.872,28.809,36.133,37.109,29.297,23.438,0
1539618009.876,28.809,43.457,32.227,17.090,13.672,0
1539618009.880,29.297,51.270,28.809,28.809,31.250,0
1539618009.883,25.391,48.828,34.180,33.203,0.000,0
1539618009.887,27.344,35.156,33.691,23.926,32.715,0
1539618009.891,33.691,35.156,29.785,21.484,75.684,0
1539618009.895,33.691,41.016,26.367,25.391,53.223,0
1539618009.899,33.203,43.457,27.832,30.273,15.137,0
1539618009.903,42.480,44.922,36.621,31.738,38.574,0
1539618009.907,38.086,34.668,45.410,29.785,92.285,0
1539618009.911,20.996,36.133,41.992,29.297,120.117,0
1539618009.915,24.414,43.945,36.621,20.020,67.871,0
1539618009.919,26.855,40.039,37.109,20.020,19.043,0
1539618009.923,32.715,44.434,34.668,26.367,42.969,0
1539618009.926,36.133,46.875,31.738,23.926,97.168,0
1539618009.930,20.996,40.527,29.785,21.973,45.898,0
1539618009.934,21.484,41.016,33.691,23.438,0.000,0
1539618009.938,31.738,39.551,34.668,30.273,28.809,0
1539618009.942,36.621,40.527,30.762,32.715,38.086,0
1539618009.946,33.691,43.945,30.273,20.508,74.707,0
1539618009.950,29.297,42.969,30.762,18.066,54.688,0
1539618009.954,32.227,43.945,34.668,27.344,-29.785,0
1539618009.958,30.273,48.828,39.551,32.715,-5.859,0
1539618009.962,32.227,40.527,37.598,21.973,-13.184,0
1539618009.966,23.438,29.785,29.297,17.090,-16.602,0
1539618009.969,21.973,38.086,26.367,27.344,66.895,0
1539618009.973,21.973,42.480,31.250,29.785,88.379,0
1539618009.977,10.742,41.504,33.203,18.066,51.758,0
1539618009.981,10.742,39.062,27.344,21.484,59.082,0
1539618009.985,28.809,34.180,29.785,27.832,44.434,0
1539618009.989,31.250,34.668,24.902,22.949,34.180,0
1539618009.993,17.090,38.086,25.391,20.020,50.293,0
1539618009.997,20.996,44.434,37.598,25.391,68.848,0
1539618010.001,31.738,37.109,39.551,32.715,29.297,0
1539618010.005,32.227,36.133,38.574,26.855,34.180,0
1539618010.008,14.160,40.527,36.133,16.113,49.805,0
1539618010.012,17.578,30.273,27.832,28.320,44.922,0
1539618010.016,25.879,30.273,26.367,30.273,33.691,0
1539618010.020,24.902,38.086,33.691,17.090,65.430,0
1539618010.024,24.414,41.016,32.715,15.625,75.195,0
1539618010.028,26.367,39.551,36.133,29.785,29.297,0
1539618010.032,26.855,36.133,44.922,28.809,15.625,0
1539618010.036,19.043,31.250,37.109,22.949,7.324,0
1539618010.040,27.344,35.645,28.320,30.273,40.039,0
1539618010.044,26.855,39.062,26.855,28.320,-0.977,0
1539618010.048,23.926,33.203,28.809,32.715,16.602,0
1539618010.051,29.785,34.668,33.691,34.180,115.234,0
1539618010.055,37.598,41.016,25.391,24.902,117.188,0
1539618010.059,45.410,38.574,28.320,24.902,36.133,0
1539618010.063,36.621,32.715,37.598,27.344,-1.465,0
1539618010.067,38.086,32.227,37.598,31.738,31.250,0
1539618010.071,34.668,40.039,37.109,31.250,23.926,0
1539618010.075,28.320,38.574,30.273,15.625,-31.738,0
1539618010.079,28.320,38.086,27.832,13.184,-54.199,0
1539618010.083,21.973,34.180,37.109,23.926,-47.852,0
1539618010.087,13.672,24.902,30.762,22.461,-8.301,0
1539618010.091,12.207,31.738,22.461,7.324,-7.812,0
1539618010.094,13.672,35.645,30.762,10.254,-62.988,0
1539618010.098,21.484,35.156,29.785,16.602,-28.320,0
1539618010.102,29.785,40.527,32.227,18.066,42.480,0
1539618010.106,30.762,35.645,35.645,30.273,18.066,0
1539618010.110,22.949,36.621,38.574,27.832,35.645,0
1539618010.114,19.531,45.898,42.480,27.344,66.895,0
1539618010.118,21.973,36.621,37.109,32.715,73.730,0
1539618010.122,30.273,38.086,31.250,23.438,61.035,0
1539618010.126,32.715,41.504,28.320,23.926,39.551,0
1539618010.130,30.273,29.297,31.738,37.109,48.828,0
1539618010.133,27.344,33.203,36.133,27.832,-1.953,0
1539618010.137,25.391,34.668,30.762,21.484,21.973,0
1539618010.141,28.809,38.574,27.344,25.879,101.562,0
1539618010.145,28.320,44.922,26.855,25.879,-25.879,0
1539618010.149,24.414,37.598,26.855,16.113,-32.227,0
1539618010.153,34.668,39.551,33.203,21.484,17.090,0
1539618010.157,46.875,45.898,38.086,36.133,15.137,0
1539618010.161,35.645,37.598,28.809,29.785,17.090,0
1539618010.165,27.344,29.297,25.879,20.020,11.719,0
1539618010.169,24.414,29.785,33.691,18.066,-9.277,0
1539618010.173,20.996,39.062,33.691,17.578,39.062,0
1539618010.176,20.996,43.457,26.855,20.508,95.215,0
1539618010.180,37.598,43.945,18.066,26.855,89.844,0
1539618010.184,47.363,45.410,23.926,30.273,75.684,0
1539618010.188,31.250,40.039,36.133,20.996,-10.742,0
1539618010.192,22.949,39.062,35.156,18.555,-44.434,0
1539618010.196,20.996,39.062,33.691,22.461,44.922,0
1539618010.200,24.414,35.645,37.598,22.949,67.871,0
1539618010.204,26.367,32.227,40.527,32.227,63.965,0
1539618010.208,28.809,33.203,38.086,38.574,49.316,0
1539618010.212,38.086,33.691,39.551,36.133,2.441,0
1539618010.216,41.504,30.273,42.480,33.691,5.371,2
1539618010.219,37.109,30.762,39.551,34.668,5.859,0
1539618010.223,31.738,34.180,35.156,31.738,33.691,0
1539618010.227,37.598,36.133,38.086,31.738,50.293,0
1539618010.231,27.832,35.156,39.062,29.785,63.477,0
1539618010.235,26.855,38.086,32.227,25.879,81.055,0
1539618010.239,27.344,38.086,21.973,26.855,35.156,0
1539618010.243,34.668,38.086,26.367,28.320,66.406,0
1539618010.247,41.992,39.062,34.668,21.973,50.293,0
1539618010.251,31.738,39.551,39.062,18.555,66.895,0
1539618010.255,26.367,41.504,47.363,25.391,101.562,0
1539618010.258,27.344,37.109,43.945,31.250,49.805,0
1539618010.262,32.715,38.086,39.062,27.832,-1.465,0
1539618010.266,31.738,44.434,38.086,27.344,-52.734,0
1539618010.270,34.180,40.039,34.180,20.020,-39.551,0
1539618010.274,32.715,30.762,36.621,24.414,56.641,0
1539618010.278,26.367,33.203,40.039,28.809,57.129,0
1539618010.282,24.902,37.598,36.621,22.461,-7.812,0
1539618010.286,28.320,41.992,34.668,27.832,-6.836,0
1539618010.290,32.227,49.805,43.945,45.410,-7.812,0
1539618010.294,27.344,41.992,44.434,32.227,-5.859,0
1539618010.298,19.531,31.738,26.367,13.184,17.578,0
1539618010.301,23.438,28.809,26.367,8.789,30.273,0
1539618010.305,38.574,33.691,32.715,22.461,19.531,0
1539618010.309,32.715,41.992,29.785,27.832,-20.996,0
1539618010.313,24.414,38.574,26.367,20.020,33.691,0
1539618010.317,28.809,34.668,32.715,32.715,31.250,0
1539618010.321,35.156,32.227,36.133,42.480,-36.621,0
1539618010.325,29.785,35.645,32.715,31.250,-7.812,0
1539618010.329,26.367,37.109,36.621,19.043,27.344,0
1539618010.333,20.508,35.645,34.180,25.879,57.617,0
1539618010.337,21.973,40.527,28.320,23.926,96.191,0
1539618010.341,27.832,37.109,39.551,22.949,68.359,0
1539618010.344,25.879,36.621,47.363,26.855,26.855,0
1539618010.348,27.344,41.504,34.668,22.461,39.062,0
1539618010.352,32.227,48.340,25.879,26.855,69.824,0
1539618010.356,35.156,51.270,32.227,29.297,57.617,0
1539618010.360,40.527,47.852,33.203,23.926,44.922,0
1539618010.364,41.992,37.598,30.762,26.855,13.184,0
1539618010.368,30.273,27.344,32.227,30.762,-1.465,0
1539618010.372,25.391,28.809,37.109,32.227,29.785,0
1539618010.376,31.738,35.156,40.039,31.250,16.602,0
1539618010.380,36.133,38.574,35.156,27.832,53.223,0
1539618010.383,33.203,37.109,33.203,17.578,69.824,0
1539618010.387,29.785,41.016,34.180,20.020,-24.902,0
1539618010.391,23.926,42.480,32.715,26.855,6.836,0
1539618010.395,30.762,41.504,36.133,29.297,79.102,0
1539618010.399,33.691,45.410,39.062,28.809,45.898,0
1539618010.403,44.922,50.293,39.551,37.598,8.301,0
1539618010.407,47.363,50.293,38.574,42.969,34.668,0
1539618010.411,36.133,44.922,29.297,20.020,45.410,0
1539618010.415,34.668,49.805,25.391,11.230,-1.465,0
1539618010.419,38.574,53.711,26.855,31.738,13.672,0
1539618010.423,30.273,44.434,30.762,25.879,-7.324,0
1539618010.426,26.855,39.551,27.832,15.625,-15.137,0
1539618010.430,32.715,35.645,25.391,24.902,51.758,0
1539618010.434,30.762,35.645,31.250,18.066,62.500,0
1539618010.438,39.551,38.086,40.527,30.762,61.523,0
1539618010.442,41.992,40.039,40.527,32.715,82.031,0
1539618010.446,34.668,39.062,30.273,18.555,25.391,0
1539618010.450,30.273,38.086,27.344,21.973,-22.949,0
1539618010.454,34.668,39.551,31.250,21.484,-1.465,0
1539618010.458,50.293,40.039,38.086,21.484,41.016,0
1539618010.462,47.852,42.969,34.180,28.809,35.156,0
1539618010.466,24.902,41.992,28.809,31.738,34.668,0
1539618010.469,32.227,34.668,35.156,26.855,43.945,0
1539618010.473,53.223,42.969,40.527,34.180,29.785,0
1539618010.477,40.527,50.781,37.109,34.668,17.578,0
1539618010.481,29.785,43.945,34.180,33.203,32.715,0
1539618010.485,25.879,36.621,37.598,34.668,78.613,0
1539618010.489,20.996,38.574,40.039,30.762,52.734,0
1539618010.493,27.344,43.457,36.133,33.691,31.738,0
1539618010.497,22.461,49.805,33.691,28.809,46.387,0
1539618010.501,20.508,47.363,36.621,24.414,81.543,0
1539618010.505,26.367,42.480,31.738,20.508,52.246,0
1539618010.508,25.391,43.457,20.508,17.578,17.578,0
1539618010.512,8.789,39.062,27.832,18.066,51.270,0
1539618010.516,3.418,34.668,30.273,15.625,30.762,0
1539618010.520,21.484,44.434,33.203,11.719,29.297,0
1539618010.524,16.602,49.316,41.016,12.695,58.105,0
1539618010.528,13.672,42.480,39.551,22.461,63.965,0
1539618010.532,30.762,38.574,43.457,27.344,37.598,0
1539618010.536,39.551,40.527,43.945,31.738,43.945,0
1539618010.540,43.457,41.992,37.109,34.668,87.891,0
1539618010.544,39.551,41.504,36.621,35.156,70.801,0
1539618010.548,25.879,44.434,36.621,39.551,21.973,0
1539618010.551,27.344,45.898,34.668,29.785,-18.555,0
1539618010.555,31.250,46.875,37.109,31.250,15.137,0
1539618010.559,29.297,49.805,35.156,31.738,81.055,0
1539618010.563,42.480,43.457,43.457,33.691,77.148,0
1539618010.567,27.832,37.598,36.621,34.180,45.410,0
1539618010.571,22.461,38.574,27.832,28.320,19.531,0
1539618010.575,39.551,43.945,43.457,32.227,-20.508,0
1539618010.579,58.105,48.340,39.062,22.949,6.836,0
1539618010.583,63.477,39.551,23.926,12.207,10.742,0
1539618010.587,45.898,36.133,24.414,16.602,6.836,0
1539618010.591,31.738,42.480,29.297,17.090,-18.066,0
1539618010.594,32.227,44.434,29.297,12.695,-20.996,0
1539618010.598,24.902,41.992,30.762,7.324,14.160,0
1539618010.602,22.949,40.039,32.715,14.160,27.344,0
1539618010.606,27.344,45.898,32.227,19.043,75.684,0
1539618010.610,19.043,54.199,29.297,13.672,73.730,0
1539618010.614,8.789,45.898,27.832,16.602,12.207,0
1539618010.618,16.602,42.480,32.227,23.926,17.090,0
1539618010.622,21.973,48.828,33.203,28.320,3.906,0
1539618010.626,15.137,50.781,34.180,20.020,-24.902,0
1539618010.630,18.066,49.316,33.691,15.625,29.785,0
1539618010.633,27.344,51.270,30.762,27.832,65.918,0
1539618010.637,26.855,51.270,31.738,26.855,78.125,0
1539618010.641,24.414,48.340,30.273,16.602,47.852,0
1539618010.645,22.461,46.387,32.227,21.973,61.523,0
1539618010.649,21.484,46.387,31.738,17.578,52.246,0
1539618010.653,30.762,48.340,28.809,20.508,10.254,0
1539618010.657,23.926,52.246,29.785,17.578,45.898,0
1539618010.661,22.949,51.758,31.738,18.555,36.133,0
1539618010.665,21.973,50.293,34.180,16.113,18.066,0
1539618010.669,25.391,49.316,31.738,0.977,55.176,0
1539618010.673,22.949,49.316,28.320,16.602,39.062,0
1539618010.676,4.883,49.805,24.902,19.531,71.777,0
1539618010.680,9.277,52.246,23.926,12.695,54.688,0
1539618010.684,20.020,52.246,31.250,20.020,36.133,0
1539618010.688,20.020,49.805,34.180,31.738,46.875,0
1539618010.692,27.344,45.410,32.227,22.949,-2.930,0
1539618010.696,28.320,42.969,29.785,17.578,6.348,0
1539618010.700,25.391,49.316,29.785,24.902,34.180,0
1539618010.704,30.273,55.664,35.645,27.344,27.832,0
1539618010.708,36.133,47.852,18.066,22.949,26.855,0
1539618010.712,28.809,37.598,11.719,18.555,37.109,0
1539618010.716,19.043,49.316,33.691,11.230,-7.324,0
1539618010.719,17.090,52.734,35.645,13.672,3.418,0
1539618010.723,16.602,47.852,32.227,20.996,47.363,0
1539618010.727,16.113,44.922,35.645,17.090,20.508,0
1539618010.731,20.996,50.781,37.598,19.043,0.977,0
1539618010.735,11.230,49.316,37.109,11.719,35.156,0
1539618010.739,4.395,44.922,35.645,6.836,86.914,0
1539618010.743,10.254,50.781,31.738,14.160,52.246,0
1539618010.747,11.230,42.969,33.203,15.137,22.949,0
1539618010.751,29.785,46.875,32.715,25.391,15.625,0
1539618010.755,24.414,46.387,19.531,31.738,33.691,0
1539618010.758,8.301,41.992,22.461,22.949,27.344,0
1539618010.762,13.672,45.898,32.227,15.137,43.945,0
1539618010.766,15.625,42.480,34.180,17.090,44.922,0
1539618010.770,16.602,43.457,36.621,17.090,5.371,0
1539618010.774,15.625,47.363,35.645,15.625,-0.977,0
1539618010.778,18.066,47.363,34.668,19.531,1.953,0
1539618010.782,18.555,41.016,32.715,21.973,8.301,0
1539618010.786,22.949,39.551,31.738,22.949,63.965,0
1539618010.790,21.484,43.945,30.273,15.625,55.176,0
1539618010.794,20.508,46.387,30.273,20.508,60.059,0
1539618010.798,31.250,46.875,33.691,24.902,85.938,0
1539618010.801,39.551,42.969,40.527,29.297,53.711,0
1539618010.805,35.645,41.504,38.574,35.645,76.172,0
1539618010.809,17.578,44.922,29.785,20.020,88.867,0
1539618010.813,12.695,43.945,32.227,21.484,45.898,0
1539618010.817,20.020,42.969,32.715,31.738,112.793,0
1539618010.821,33.203,46.387,30.273,36.621,97.168,0
1539618010.825,37.109,37.109,35.645,41.504,37.109,0
1539618010.829,32.227,38.574,32.715,35.156,108.398,0
1539618010.833,37.598,45.410,23.926,42.969,96.680,0
1539618010.837,18.555,43.457,25.879,33.691,82.520,0
1539618010.841,25.391,46.875,29.297,27.344,37.109,0
1539618010.844,45.410,43.457,34.180,36.621,34.668,0
1539618010.848,32.715,40.039,37.598,34.180,8.301,0
1539618010.852,29.785,46.875,29.297,34.180,-18.066,0
1539618010.856,35.156,46.875,26.855,24.414,29.785,0
1539618010.860,25.391,39.551,33.203,14.160,45.898,0
1539618010.864,21.973,39.062,39.551,27.832,12.207,0
1539618010.868,24.902,41.504,39.062,29.297,16.602,0
1539618010.872,21.973,41.016,35.156,24.414,47.363,0
1539618010.876,18.066,40.527,36.133,22.461,22.461,0
1539618010.880,23.926,40.039,37.598,20.508,2.930,0
1539618010.883,25.391,36.133,35.156,28.809,18.555,0
1539618010.887,36.133,40.039,43.457,35.645,29.297,0
1539618010.891,40.039,44.434,45.898,38.086,28.809,0
1539618010.895,22.461,37.598,35.645,29.785,41.504,0
1539618010.899,28.809,36.133,30.762,24.902,-1.465,0
1539618010.903,26.367,39.551,29.785,27.344,7.812,0
1539618010.907,29.297,30.762,34.180,30.273,48.828,0
1539618010.911,38.574,28.320,34.668,29.297,-25.879,0
1539618010.915,41.504,41.504,35.645,31.250,-14.648,0
1539618010.919,35.645,43.945,37.598,26.367,33.691,0
1539618010.923,24.902,40.039,30.762,21.973,62.988,0
1539618010.926,31.250,38.086,31.738,31.738,50.781,0
1539618010.930,22.461,41.016,39.062,33.691,15.625,0
1539618010.934,22.949,42.969,39.551,35.156,57.617,0
1539618010.938,35.645,41.016,40.039,35.156,20.996,0
1539618010.942,32.715,43.457,37.109,26.367,-12.695,0
1539618010.946,37.598,47.363,38.574,32.715,89.355,0
1539618010.950,43.457,50.293,41.504,35.156,120.605,0
1539618010.954,33.691,48.340,40.527,24.414,41.504,0
1539618010.958,24.414,45.410,25.879,29.297,16.602,0
1539618010.962,27.832,43.457,17.090,23.926,80.078,0
1539618010.966,28.320,41.992,22.461,23.438,53.223,0
1539618010.969,30.273,50.781,34.668,29.297,31.250,0
1539618010.973,27.832,48.340,42.969,24.414,24.902,0
1539618010.977,30.762,38.086,34.668,23.926,34.180,0
1539618010.981,25.391,43.457,34.668,22.461,23.438,0
1539618010.985,16.602,47.363,39.062,14.648,-42.969,0
1539618010.989,19.043,46.875,32.715,18.066,45.410,0
1539618010.993,37.109,37.598,32.227,19.043,50.781,0
1539618010.997,38.574,36.621,36.621,10.742,-3.906,0
1539618011.001,37.109,49.805,33.691,25.391,1.953,0
1539618011.005,32.227,47.363,30.762,32.227,41.016,0
1539618011.008,31.250,47.363,30.762,37.109,67.871,0
1539618011.012,41.016,46.875,31.250,44.434,18.555,0
1539618011.016,36.133,40.527,34.180,36.133,39.551,0
1539618011.020,31.250,32.227,37.109,30.273,35.645,0
1539618011.024,34.180,34.180,39.551,32.715,2.930,0
1539618011.028,34.668,41.504,39.062,30.762,37.598,0
1539618011.032,35.156,40.039,43.457,33.203,41.992,0
1539618011.036,36.133,38.574,42.969,36.133,33.691,0
1539618011.040,30.762,40.039,23.438,25.879,63.965,0
1539618011.044,19.531,44.434,15.137,21.484,151.367,0
1539618011.048,11.719,45.898,26.855,17.578,125.977,0
1539618011.051,11.719,36.621,38.574,17.578,86.914,0
1539618011.055,12.695,38.086,39.551,16.113,99.121,0
1539618011.059,25.391,47.852,38.574,12.695,43.945,0
1539618011.063,26.367,41.016,39.551,14.160,26.367,0
1539618011.067,18.555,36.621,33.691,12.207,40.039,0
1539618011.071,18.555,41.504,30.762,28.809,24.902,0
1539618011.075,26.855,41.504,33.691,27.344,14.160,0
1539618011.079,26.367,34.180,38.086,20.508,21.484,0
1539618011.083,16.113,35.156,35.645,28.320,15.137,0
1539618011.087,11.719,39.551,36.133,32.715,26.855,0
1539618011.091,25.391,36.621,38.574,26.367,-44.922,0
1539618011.094,30.273,38.086,37.109,25.391,6.836,0
1539618011.098,27.832,40.039,34.180,33.203,99.609,0
1539618011.102,27.832,40.039,38.086,32.227,31.250,0
1539618011.106,31.250,42.969,39.551,30.273,-13.184,0
1539618011.110,44.922,43.457,30.762,33.691,41.016,0
1539618011.114,38.574,45.410,26.855,19.043,50.781,0
1539618011.118,23.926,46.875,34.668,16.113,-11.230,0
1539618011.122,38.086,44.434,35.645,28.809,-14.160,0
1539618011.126,48.340,43.945,39.551,33.203,-34.180,0
1539618011.130,37.598,39.551,40.527,33.203,-25.879,0
1539618011.133,26.367,35.156,30.762,20.996,8.301,0
1539618011.137,24.414,43.945,20.996,18.066,25.391,0
1539618011.141,25.391,48.340,19.531,23.926,21.484,0
1539618011.145,26.855,44.922,29.297,23.926,3.418,0
1539618011.149,31.250,47.363,28.809,25.391,1.465,0
1539618011.153,28.809,46.387,36.133,28.320,28.320,0
1539618011.157,33.203,39.062,44.922,27.344,81.055,0
1539618011.161,41.016,36.133,51.270,31.738,85.449,0
1539618011.165,34.668,41.992,50.293,31.738,45.410,0
1539618011.169,22.461,44.434,34.668,23.926,62.988,0
1539618011.173,34.668,38.574,30.762,19.043,41.504,0
1539618011.176,32.227,36.621,36.133,15.625,20.996,0
1539618011.180,7.324,39.062,32.715,9.766,8.789,0
1539618011.184,26.367,46.387,33.203,15.625,-12.207,0
1539618011.188,34.668,45.898,33.691,27.832,10.742,0
1539618011.192,21.973,41.992,26.855,28.809,7.812,0
1539618011.196,18.066,39.551,27.344,20.020,30.273,0
1539618011.200,11.719,40.039,32.715,18.066,98.633,0
1539618011.204,26.367,36.133,34.180,21.484,71.289,0
1539618011.208,38.574,34.180,34.180,20.996,-6.348,0
1539618011.212,39.551,41.504,35.156,19.531,-7.324,0
1539618011.216,39.551,45.410,34.180,20.996,13.184,0
1539618011.219,21.484,44.434,32.715,22.461,31.738,0
1539618011.223,14.648,41.504,24.414,8.789,28.320,0
1539618011.227,19.043,36.621,26.367,11.230,25.391,0
1539618011.231,17.090,38.574,39.551,14.648,71.289,0
1539618011.235,17.090,38.574,41.992,15.137,79.102,0
1539618011.239,18.066,34.180,36.133,22.949,12.207,0
1539618011.243,20.996,35.156,31.250,18.066,38.574,0
1539618011.247,22.461,34.180,36.133,16.602,16.602,0
1539618011.251,21.484,31.250,40.039,17.578,-34.180,0
1539618011.255,20.996,30.762,37.598,24.902,16.113,0
1539618011.258,23.438,36.133,34.668,25.879,36.133,0
1539618011.262,27.344,54.199,33.203,15.137,7.812,0
1539618011.266,31.250,53.223,38.086,23.438,20.996,0
1539618011.270,41.992,40.527,46.387,34.180,66.406,0
1539618011.274,44.922,45.410,44.434,39.551,78.613,0
1539618011.278,38.086,39.062,37.109,34.180,61.035,0
1539618011.282,35.645,31.738,28.809,23.438,82.031,0
1539618011.286,38.574,32.715,24.902,23.438,58.594,0
1539618011.290,31.250,42.480,36.133,36.133,-9.277,0
1539618011.294,29.785,44.434,42.969,29.785,-9.766,0
1539618011.298,29.785,34.668,26.855,15.137,23.926,0
1539618011.301,24.414,36.133,24.414,20.996,49.316,0
1539618011.305,32.227,38.574,37.598,17.090,41.992,0
1539618011.309,40.039,41.016,38.574,21.973,21.973,0
1539618011.313,34.668,40.527,36.621,37.109,5.371,0
1539618011.317,31.250,36.621,36.133,37.598,-13.672,0
1539618011.321,32.227,39.551,35.156,34.180,7.324,0
1539618011.325,25.879,39.551,35.156,31.738,37.598,0
1539618011.329,24.414,35.645,41.992,21.973,20.508,0
1539618011.333,22.949,36.133,39.062,20.996,57.129,0
1539618011.337,18.066,38.086,31.738,22.949,83.984,0
1539618011.341,28.809,42.480,37.598,29.785,23.926,0
1539618011.344,30.762,41.504,37.598,34.668,21.484,0
1539618011.348,19.043,27.832,30.273,23.926,72.266,0
1539618011.352,13.672,33.203,34.180,8.301,-3.906,0
1539618011.356,7.812,44.434,34.668,7.324,30.273,0
1539618011.360,18.555,47.363,33.203,12.207,108.398,0
1539618011.364,37.109,41.504,35.156,14.160,80.566,0
1539618011.368,29.785,38.086,34.180,19.043,24.414,0
1539618011.372,27.832,43.945,34.180,16.113,-16.602,0
1539618011.376,38.574,41.016,37.109,16.113,75.195,0
1539618011.380,34.668,36.621,38.086,24.414,120.605,0
1539618011.383,40.039,38.086,32.227,21.484,89.844,0
1539618011.387,45.410,41.504,34.180,24.902,66.406,0
1539618011.391,40.527,37.598,36.621,29.785,21.484,0
1539618011.395,40.039,35.645,32.227,25.879,18.066,0
1539618011.399,35.156,42.480,32.227,28.320,30.762,0
1539618011.403,27.832,49.805,36.621,28.320,41.016,0
1539618011.407,41.504,43.457,35.156,39.062,26.367,0
1539618011.411,38.086,38.086,39.551,47.363,-42.969,0
1539618011.415,19.043,37.109,48.340,40.039,-31.738,0
1539618011.419,33.203,38.086,53.223,48.828,-5.371,0
1539618011.423,37.598,50.293,49.805,58.594,1.465,0
1539618011.426,32.227,46.387,40.527,41.016,45.898,0
1539618011.430,27.344,39.062,38.574,35.156,26.367,0
1539618011.434,33.203,41.016,34.180,30.762,30.762,0
1539618011.438,40.527,39.551,30.762,27.344,0.000,0
1539618011.442,32.227,45.898,34.180,37.598,-31.250,0
1539618011.446,31.738,51.270,41.504,21.484,22.461,0
1539618011.450,26.367,45.410,37.598,9.766,37.598,0
1539618011.454,26.367,42.480,25.879,22.949,5.371,0
1539618011.458,23.438,45.898,37.109,33.691,15.625,0
1539618011.462,35.645,42.480,48.340,32.227,24.902,0
1539618011.466,31.738,40.527,39.062,6.836,-3.418,0
1539618011.469,27.344,48.340,34.180,18.066,35.156,0
1539618011.473,39.062,49.316,35.156,35.156,48.340,0
1539618011.477,29.297,37.598,37.109,15.137,23.926,0
1539618011.481,32.715,40.039,41.016,16.113,72.754,0
1539618011.485,37.598,46.387,37.109,19.531,54.199,0
1539618011.489,26.367,45.410,38.086,24.414,-32.715,1
1539618011.493,25.391,40.527,41.016,30.273,-7.812,0
1539618011.497,32.715,36.133,40.039,20.020,69.824,0
1539618011.501,40.527,41.016,42.480,24.414,57.129,0
1539618011.505,40.039,42.480,41.016,33.691,95.703,0
1539618011.508,40.039,42.969,41.016,42.969,64.941,0
1539618011.512,41.992,42.480,42.480,45.410,24.414,0
1539618011.516,42.480,46.875,43.457,40.039,46.875,0
1539618011.520,43.457,42.969,39.551,47.852,17.090,0
1539618011.524,46.875,40.527,37.598,40.039,59.082,0
1539618011.528,34.668,47.363,40.039,27.344,55.664,0
1539618011.532,29.785,41.992,40.039,34.180,50.293,0
1539618011.536,31.250,35.645,34.668,30.762,59.082,0
1539618011.540,26.367,39.062,38.574,21.484,-9.766,0
1539618011.544,35.156,45.410,41.016,27.344,4.883,0
1539618011.548,40.527,46.875,37.109,27.832,56.152,0
1539618011.551,36.133,44.922,34.180,5.859,25.879,0
1539618011.555,36.133,41.992,39.062,8.789,13.184,0
1539618011.559,42.969,40.039,38.574,25.879,28.809,0
1539618011.563,36.621,37.598,32.715,19.531,82.520,0
1539618011.567,32.715,43.457,34.180,22.461,72.266,0
1539618011.571,38.574,43.945,33.203,20.996,7.812,0
1539618011.575,31.250,43.457,23.926,23.926,13.672,0
1539618011.579,20.508,41.016,25.391,26.855,6.348,0
1539618011.583,24.902,35.645,37.109,18.555,-28.320,0
1539618011.587,17.578,40.527,37.598,22.949,31.738,0
1539618011.591,29.297,46.875,35.645,18.555,65.430,0
1539618011.594,31.250,36.133,39.551,24.902,46.387,0
1539618011.598,35.645,35.156,35.156,34.668,64.453,0
1539618011.602,44.434,43.457,35.156,23.926,23.926,0
1539618011.606,29.785,36.621,35.645,26.367,0.000,0
1539618011.610,33.203,29.297,33.691,34.668,36.133,0
1539618011.614,38.086,40.527,30.762,31.250,64.453,0
1539618011.618,36.133,40.039,19.043,42.480,64.453,0
1539618011.622,32.227,36.621,22.461,48.828,50.293,0
1539618011.626,38.086,48.828,36.133,38.086,59.082,0
1539618011.630,36.133,51.270,39.062,33.691,6.348,0
1539618011.633,22.461,41.992,33.691,31.738,7.812,0
1539618011.637,19.531,37.598,29.297,25.879,74.219,0
1539618011.641,25.879,40.527,40.039,31.250,56.641,0
1539618011.645,27.344,36.621,42.480,29.785,40.527,0
1539618011.649,25.391,34.180,34.180,22.461,74.707,0
1539618011.653,29.785,44.922,34.180,18.066,-2.441,0
1539618011.657,29.297,45.410,39.551,9.766,3.418,0
1539618011.661,26.367,41.992,32.715,11.230,116.699,0
1539618011.665,20.508,40.527,29.785,16.602,84.961,0
1539618011.669,31.250,35.156,40.039,28.809,4.883,0
1539618011.673,34.668,38.086,42.480,32.227,-2.930,0
1539618011.676,20.508,43.945,37.598,21.973,0.000,0
1539618011.680,28.320,40.039,37.109,28.809,19.043,0
1539618011.684,46.387,41.504,38.086,35.645,39.551,0
1539618011.688,28.320,43.457,37.598,33.203,32.715,0
1539618011.692,10.742,39.062,36.133,22.461,22.461,0
1539618011.696,21.484,39.062,36.621,9.766,47.852,0
1539618011.700,23.438,37.109,36.621,14.648,6.348,0
1539618011.704,24.414,36.621,32.715,20.508,-7.324,0
1539618011.708,19.531,37.598,34.668,16.602,20.996,0
1539618011.712,17.090,36.621,30.762,11.230,6.836,0
1539618011.716,24.414,40.039,31.250,17.090,-2.930,0
1539618011.719,33.203,42.480,32.715,28.809,-70.801,0
1539618011.723,31.250,43.457,33.203,31.250,-68.848,0
1539618011.727,20.508,41.992,35.156,19.531,-4.395,0
1539618011.731,22.949,38.574,32.715,19.531,2.930,0
1539618011.735,32.715,31.250,40.527,30.273,38.086,0
1539618011.739,23.438,30.762,42.969,26.855,29.785,0
1539618011.743,25.391,38.086,38.086,18.555,-8.301,0
1539618011.747,30.273,37.598,39.551,24.902,-23.438,0
1539618011.751,22.461,38.086,37.598,26.367,43.457,0
1539618011.755,17.578,37.598,34.180,23.438,82.520,0
1539618011.758,34.180,41.504,33.691,31.250,11.719,0
1539618011.762,47.363,37.598,42.480,37.598,18.555,0
1539618011.766,42.969,40.039,34.668,26.367,20.020,0
1539618011.770,35.645,46.387,26.855,25.391,11.719,0
1539618011.774,38.574,41.992,35.156,34.180,85.449,0
1539618011.778,38.086,37.598,42.969,32.227,118.164,0
1539618011.782,16.602,29.297,36.133,28.809,60.547,0
1539618011.786,23.926,36.621,28.809,20.508,29.785,0
1539618011.790,26.367,44.922,41.016,19.043,49.805,0
1539618011.794,16.113,36.621,43.945,16.602,53.711,0
1539618011.798,11.719,35.156,37.598,6.348,29.785,0
1539618011.801,10.742,35.645,35.645,12.207,53.223,0
1539618011.805,15.625,33.691,31.738,23.438,52.246,0
1539618011.809,17.578,40.039,32.227,19.043,42.969,0
1539618011.813,16.113,42.969,35.645,21.973,50.781,0
1539618011.817,21.484,41.504,36.133,21.973,22.461,0
1539618011.821,23.438,38.574,35.645,24.414,24.902,0
1539618011.825,35.645,44.922,37.598,24.414,48.340,0
1539618011.829,34.180,43.457,38.574,23.926,20.996,0
1539618011.833,32.715,33.691,38.086,28.809,-34.668,0
1539618011.837,20.996,30.762,40.527,28.809,-3.418,0
1539618011.841,17.090,36.621,36.133,20.020,55.664,0
1539618011.844,34.668,46.875,36.621,18.066,30.762,0
1539618011.848,33.691,47.363,41.992,29.297,8.789,0
1539618011.852,24.902,38.574,36.133,32.227,46.387,0
1539618011.856,26.367,40.039,30.273,26.855,112.305,0
1539618011.860,31.250,40.527,34.668,27.344,95.215,0
1539618011.864,33.691,43.457,38.574,39.062,22.949,0
1539618011.868,38.574,44.922,37.598,39.551,4.395,0
1539618011.872,35.645,39.551,33.691,27.832,14.160,0
1539618011.876,42.480,36.621,37.109,33.691,31.250,0
1539618011.880,43.945,39.551,40.039,37.598,35.645,0
1539618011.883,23.438,35.645,40.527,29.297,49.316,0
1539618011.887,36.133,37.598,40.039,28.809,2.441,0
1539618011.891,42.480,39.062,34.180,27.344,-15.625,0
1539618011.895,36.621,30.273,33.691,29.785,20.996,0
1539618011.899,47.363,35.645,41.504,34.180,18.066,0
1539618011.903,39.062,33.691,41.992,29.785,45.410,0
1539618011.907,29.297,29.297,37.598,25.391,38.086,0
1539618011.911,25.391,37.109,38.086,28.320,-8.301,0
1539618011.915,26.367,39.551,36.621,32.227,7.812,0
1539618011.919,26.367,36.621,32.715,31.738,55.664,0
1539618011.923,22.949,34.180,35.645,25.879,27.344,0
1539618011.926,31.738,32.227,40.039,26.855,2.930,0
1539618011.930,33.691,36.133,40.039,23.926,22.949,0
1539618011.934,15.625,37.598,34.180,18.066,23.926,0
1539618011.938,13.184,34.180,33.691,23.438,29.785,0
1539618011.942,20.508,35.156,33.203,18.066,-13.672,0
1539618011.946,19.043,37.598,28.809,18.555,-2.930,0
1539618011.950,27.344,35.156,36.133,33.691,48.828,0
1539618011.954,38.574,31.738,42.969,28.320,30.762,0
1539618011.958,24.414,29.785,39.551,21.973,12.207,0
1539618011.962,21.973,33.691,38.574,28.809,15.625,0
1539618011.966,21.973,40.527,40.527,27.832,7.324,0
1539618011.969,31.738,38.086,47.363,37.109,27.832,0
1539618011.973,39.551,39.551,47.852,41.992,104.004,0
1539618011.977,20.996,39.551,35.645,18.555,78.125,0
1539618011.981,18.066,39.062,29.785,6.348,-1.465,0
1539618011.985,23.926,40.527,34.668,13.672,-20.508,0
1539618011.989,28.809,46.875,36.133,6.348,11.230,0
1539618011.993,15.625,57.617,30.762,-2.441,31.250,0
1539618011.997,8.789,57.617,31.250,11.719,45.898,0
1539618012.001,21.484,52.734,34.668,17.578,82.520,0
1539618012.005,22.949,52.734,31.250,30.273,60.547,0
1539618012.008,28.320,49.316,32.227,31.250,65.918,0
1539618012.012,34.668,46.387,36.621,15.625,63.965,0
1539618012.016,25.391,53.711,34.180,19.043,48.340,0
1539618012.020,26.367,53.711,28.809,19.531,27.832,0
1539618012.024,21.484,52.734,30.762,16.602,19.531,0
1539618012.028,28.320,47.852,31.738,22.949,12.695,0
1539618012.032,36.621,42.969,34.180,21.973,26.367,0
1539618012.036,26.367,53.223,36.133,20.996,33.691,0
1539618012.040,26.367,58.105,39.062,12.207,24.902,0
1539618012.044,26.367,55.176,39.062,18.555,19.043,0
1539618012.048,35.156,56.641,33.203,25.879,11.719,0
1539618012.051,33.203,54.688,32.715,17.578,57.129,0
1539618012.055,30.273,46.387,34.668,19.043,66.895,0
1539618012.059,37.109,43.457,37.598,22.461,-16.113,0
1539618012.063,32.715,41.016,40.527,18.066,-34.180,0
1539618012.067,25.879,36.133,32.715,18.066,17.090,0
1539618012.071,27.832,43.457,30.273,25.391,98.633,0
1539618012.075,34.180,49.805,35.645,28.320,115.723,0
1539618012.079,38.086,53.711,36.133,29.785,52.246,0
1539618012.083,41.504,55.664,35.156,33.203,12.207,0
1539618012.087,35.156,53.223,33.203,35.156,8.789,0
1539618012.091,27.344,41.992,28.809,35.156,81.543,0
1539618012.094,41.016,43.457,25.391,40.527,38.574,0
1539618012.098,45.410,51.270,28.320,38.574,4.395,0
1539618012.102,32.715,53.711,23.438,39.062,45.898,0
1539618012.106,31.250,51.758,26.855,35.156,27.832,0
1539618012.110,38.086,40.039,36.621,25.391,10.254,0
1539618012.114,30.762,33.203,33.203,20.020,2.930,0
1539618012.118,19.531,41.992,26.855,20.508,63.965,0
1539618012.122,31.738,49.805,24.414,20.996,35.156,0
1539618012.126,30.762,44.434,26.367,18.066,24.414,0
1539618012.130,26.367,46.387,39.062,24.902,89.355,0
1539618012.133,34.668,44.922,40.039,25.879,79.102,0
1539618012.137,19.531,40.039,31.250,18.555,19.043,0
1539618012.141,21.973,40.039,31.738,18.066,22.461,0
1539618012.145,41.992,37.598,29.785,24.902,42.969,0
1539618012.149,35.156,36.621,32.715,25.879,-16.113,0
1539618012.153,33.203,37.598,34.180,22.949,9.277,0
1539618012.157,39.062,42.969,31.250,26.367,53.711,0
1539618012.161,39.062,44.434,35.645,29.297,-57.617,0
1539618012.165,31.250,42.969,36.133,27.832,-58.594,0
1539618012.169,26.367,41.992,40.039,22.949,32.715,0
1539618012.173,23.926,44.922,36.621,20.996,42.969,0
1539618012.176,21.484,42.969,23.926,21.484,57.617,0
1539618012.180,26.855,42.480,32.227,25.391,54.199,0
1539618012.184,32.715,42.969,36.133,25.879,86.426,0
1539618012.188,33.691,41.992,33.203,34.668,91.797,0
1539618012.192,42.480,41.504,37.598,35.645,51.270,0
1539618012.196,43.945,38.574,37.598,31.738,31.250,0
1539618012.200,32.227,40.039,32.715,34.668,41.992,0
1539618012.204,29.785,30.762,37.109,36.621,34.180,0
1539618012.208,32.227,28.809,42.969,41.016,7.324,0
1539618012.212,34.668,34.180,43.457,25.879,6.348,0
1539618012.216,36.133,34.180,41.016,19.043,3.418,0
1539618012.219,27.344,35.156,36.621,29.297,42.480,0
1539618012.223,24.902,30.273,36.133,38.086,26.367,0
1539618012.227,30.762,36.621,33.691,30.762,41.504,0
1539618012.231,34.668,44.434,32.227,17.090,37.109,0
1539618012.235,24.902,44.434,33.203,18.066,-32.715,0
1539618012.239,16.113,43.457,33.691,16.602,78.613,0
1539618012.243,28.320,37.598,35.156,21.973,146.973,0
1539618012.247,25.391,36.133,31.250,32.715,38.574,0
1539618012.251,29.785,34.668,30.273,38.086,22.461,0
1539618012.255,38.574,36.133,35.156,30.762,53.223,0
1539618012.258,28.809,37.598,35.645,15.625,-7.324,0
1539618012.262,29.785,45.898,21.973,37.598,-39.062,0
1539618012.266,38.574,51.270,27.832,47.852,29.297,0
1539618012.270,43.945,46.875,47.363,37.598,80.078,0
1539618012.274,27.344,37.598,42.480,37.109,63.965,0
1539618012.278,13.184,33.203,31.250,27.832,8.301,0
1539618012.282,19.043,38.574,31.738,26.367,21.484,0
1539618012.286,23.926,36.621,36.621,20.020,76.172,0
1539618012.290,26.367,38.086,37.109,15.137,75.684,0
1539618012.294,26.855,40.039,34.180,23.438,25.391,0
1539618012.298,32.227,38.086,35.156,24.902,52.246,0
1539618012.301,37.598,39.551,40.527,27.832,58.594,0
1539618012.305,25.391,38.086,39.062,25.391,60.059,0
1539618012.309,20.996,41.504,32.715,25.879,99.609,0
1539618012.313,30.762,41.016,37.109,24.902,54.199,0
1539618012.317,32.715,37.598,41.504,21.973,71.289,0
1539618012.321,29.785,34.180,36.621,26.855,59.082,0
1539618012.325,26.367,37.598,34.668,22.949,2.441,0
1539618012.329,28.320,43.457,35.156,23.438,17.578,0
1539618012.333,34.668,40.527,36.621,29.785,22.461,0
1539618012.337,35.645,36.621,37.109,28.809,-7.812,0
1539618012.341,22.949,40.039,33.691,25.879,-8.301,0
1539618012.344,22.949,40.039,36.133,24.414,11.719,0
1539618012.348,24.902,43.945,41.016,22.461,21.484,0
1539618012.352,26.855,49.316,42.480,21.973,-3.906,0
1539618012.356,33.691,38.574,38.574,21.973,-29.785,0
1539618012.360,22.949,39.551,31.738,20.996,-47.852,0
1539618012.364,20.508,45.410,25.879,20.508,-6.836,0
1539618012.368,23.926,40.039,33.203,24.902,36.133,0
1539618012.372,25.879,41.016,36.621,27.832,11.230,0
1539618012.376,24.414,40.527,32.715,21.484,21.973,0
1539618012.380,36.621,42.969,33.203,29.785,70.801,0
1539618012.383,41.016,47.363,38.086,31.250,29.785,0
1539618012.387,30.273,45.898,38.574,23.438,-24.902,0
1539618012.391,40.527,46.387,34.668,29.785,22.949,0
1539618012.395,39.062,50.293,36.621,33.203,48.340,0
1539618012.399,33.203,49.805,38.086,28.809,-7.812,0
1539618012.403,32.227,44.434,40.039,30.762,-0.488,0
1539618012.407,39.551,46.875,43.457,35.156,55.664,0
1539618012.411,35.645,51.758,41.016,28.809,38.574,0
1539618012.415,20.996,46.387,34.180,23.926,20.996,0
1539618012.419,21.973,42.969,35.156,27.344,53.223,0
1539618012.423,30.273,47.852,39.551,25.391,47.852,0
1539618012.426,44.922,51.758,43.457,33.203,20.020,0
1539618012.430,37.109,37.109,38.574,26.855,20.508,0
1539618012.434,29.297,34.180,40.527,20.020,53.711,0
1539618012.438,28.320,43.945,42.969,36.133,83.008,0
1539618012.442,23.438,48.828,34.668,36.133,59.082,0
1539618012.446,32.227,50.781,37.598,27.832,-34.180,0
1539618012.450,37.109,54.688,39.062,21.484,-4.395,0
1539618012.454,38.574,58.105,39.551,20.996,87.402,0
1539618012.458,31.250,50.293,29.785,20.020,63.477,0
1539618012.462,26.855,41.504,27.832,20.020,24.902,0
1539618012.466,38.086,48.340,42.969,27.344,11.230,0
1539618012.469,34.180,44.922,44.434,23.438,46.387,0
1539618012.473,27.344,32.227,35.645,16.602,74.219,0
1539618012.477,31.250,38.574,35.156,16.602,65.430,0
1539618012.481,26.855,42.480,26.855,21.484,82.031,0
1539618012.485,26.855,40.039,29.297,21.484,71.777,0
1539618012.489,22.949,54.199,40.527,20.996,41.504,0
1539618012.493,17.090,54.199,42.480,34.668,17.578,0
1539618012.497,19.531,43.457,41.016,23.926,-11.230,0
1539618012.501,21.973,47.852,36.621,13.184,-29.785,0
1539618012.505,23.438,46.387,31.250,19.043,-16.113,0
1539618012.508,21.484,42.480,29.297,17.090,-14.648,0
1539618012.512,24.414,48.340,32.715,14.648,5.859,0
1539618012.516,29.785,51.270,36.621,20.020,9.277,0
1539618012.520,30.762,44.434,31.250,22.461,-5.859,0
1539618012.524,34.180,44.922,33.691,22.461,3.418,0
1539618012.528,27.344,47.363,36.133,20.996,0.977,0
1539618012.532,19.531,37.598,34.668,13.672,-15.137,0
1539618012.536,21.484,37.109,26.855,11.230,28.809,0
1539618012.540,20.996,39.062,24.414,10.742,122.559,0
1539618012.544,26.367,42.480,38.086,16.113,49.316,0
1539618012.548,35.645,47.363,36.133,20.020,24.902,0
1539618012.551,36.133,41.504,27.832,12.695,43.945,0
1539618012.555,31.738,39.062,31.250,10.254,64.453,0
1539618012.559,30.762,38.086,31.738,22.949,89.355,0
1539618012.563,39.551,42.969,27.344,30.762,56.152,0
1539618012.567,30.762,49.316,29.297,22.949,62.012,0
1539618012.571,28.809,52.734,40.527,25.879,77.148,0
1539618012.575,30.762,56.152,39.062,29.297,69.824,0
1539618012.579,20.996,49.316,30.273,11.230,39.551,0
1539618012.583,12.695,42.480,31.738,13.672,20.020,0
1539618012.587,12.207,38.086,32.227,16.113,0.000,0
1539618012.591,22.949,43.945,34.180,9.766,-18.555,0
1539618012.594,11.230,47.852,37.109,12.695,66.406,0
1539618012.598,16.602,40.527,36.621,19.531,95.215,0
1539618012.602,37.109,41.504,34.668,22.949,41.016,0
1539618012.606,26.367,49.805,34.180,19.531,66.895,0
1539618012.610,25.879,48.828,38.574,32.715,91.797,0
1539618012.614,34.180,47.852,34.668,41.992,96.191,0
1539618012.618,33.691,44.922,27.832,42.969,68.359,0
1539618012.622,31.250,49.805,33.691,39.062,25.391,0
1539618012.626,25.391,46.387,39.062,34.668,45.410,0
1539618012.630,23.438,36.133,44.922,41.992,66.406,0
1539618012.633,26.367,43.945,44.434,33.203,69.336,0
1539618012.637,31.738,47.852,41.016,21.973,69.336,0
1539618012.641,23.926,41.504,44.922,31.738,83.496,0
1539618012.645,20.020,41.504,48.828,28.320,57.129,0
1539618012.649,16.113,41.504,43.457,15.137,-50.293,0
1539618012.653,18.555,41.016,38.574,17.578,-16.113,0
1539618012.657,18.555,40.039,41.992,15.625,41.504,0
1539618012.661,24.902,37.109,45.410,19.043,60.547,0
1539618012.665,26.855,37.109,41.504,20.508,53.711,0
1539618012.669,19.043,43.945,28.809,9.277,12.207,0
1539618012.673,33.691,50.781,23.438,17.090,-9.277,0
1539618012.676,40.527,53.711,25.391,19.043,-25.879,0
1539618012.680,33.203,45.410,26.855,2.930,25.879,0
1539618012.684,22.461,45.410,29.785,8.301,75.195,0
1539618012.688,25.391,44.434,32.715,23.438,47.363,0
1539618012.692,30.273,36.621,39.062,30.273,24.414,0
1539618012.696,25.879,42.969,40.039,35.156,63.477,0
1539618012.700,29.297,45.410,39.551,40.039,40.527,0
1539618012.704,35.645,39.551,43.945,41.504,3.418,0
1539618012.708,26.855,42.480,47.363,35.645,41.016,0
1539618012.712,20.508,40.527,44.434,24.902,-2.441,0
1539618012.716,26.855,37.598,45.898,29.297,-34.180,0
1539618012.719,22.949,37.109,43.457,36.621,4.883,0
1539618012.723,20.996,38.086,38.574,29.297,13.184,0
1539618012.727,31.738,41.504,38.086,27.344,65.918,0
1539618012.731,28.809,43.457,36.621,37.598,117.676,0
1539618012.735,23.438,49.805,40.527,33.203,41.504,0
1539618012.739,23.926,50.781,43.457,23.438,7.812,0
1539618012.743,25.391,48.340,44.922,28.809,35.156,0
1539618012.747,30.762,47.852,39.062,30.273,38.086,0
1539618012.751,25.391,42.969,21.973,22.949,54.199,0
1539618012.755,19.531,41.992,22.949,19.043,52.246,0
1539618012.758,29.297,47.363,34.180,21.484,64.453,0
1539618012.762,40.527,47.852,41.504,34.180,58.594,0
1539618012.766,38.574,49.805,35.156,44.434,63.965,0
1539618012.770,35.645,45.898,32.715,28.320,43.945,0
1539618012.774,44.922,45.898,39.062,22.949,-11.230,0
1539618012.778,46.875,49.805,41.016,31.738,-31.250,0
1539618012.782,36.621,51.270,39.551,26.367,-2.441,0
1539618012.786,29.785,50.293,32.715,17.090,14.648,0
1539618012.790,28.320,53.711,27.344,10.742,3.906,0
1539618012.794,22.949,52.734,27.832,19.043,41.992,0
1539618012.798,32.227,44.434,36.621,26.855,69.336,0
1539618012.801,37.109,43.945,41.016,26.855,45.898,0
1539618012.805,33.203,44.434,40.039,29.785,33.203,0
1539618012.809,35.645,40.039,43.457,35.156,12.207,0
1539618012.813,30.273,37.109,41.016,27.832,40.527,1
1539618012.817,28.320,37.598,39.062,23.438,50.293,0
1539618012.821,33.691,41.504,42.969,30.273,15.625,0
1539618012.825,30.273,41.504,42.480,37.598,30.762,0
1539618012.829,21.973,39.551,37.598,22.461,38.086,0
1539618012.833,30.762,43.945,37.109,22.461,7.324,0
1539618012.837,33.691,42.969,47.852,44.922,-34.668,0
1539618012.841,24.414,33.691,50.293,35.645,-12.207,0
1539618012.844,27.832,37.598,40.527,28.320,48.828,0
1539618012.848,30.762,47.363,32.227,28.320,33.691,0
1539618012.852,33.203,47.852,31.250,28.809,35.156,0
1539618012.856,41.992,42.480,36.621,34.180,63.965,0
1539618012.860,54.199,46.875,41.016,34.668,77.637,0
1539618012.864,45.898,50.293,36.621,30.762,35.156,0
1539618012.868,22.949,51.758,32.715,26.855,16.602,0
1539618012.872,15.625,48.828,38.086,33.203,61.523,0
1539618012.876,16.113,43.457,40.039,28.809,60.059,0
1539618012.880,18.066,46.387,38.574,16.113,24.414,0
1539618012.883,22.461,47.852,39.062,23.438,-9.766,0
1539618012.887,22.949,45.410,37.109,19.043,-17.578,0
1539618012.891,28.320,41.504,37.598,22.461,2.441,0
1539618012.895,40.039,43.945,35.645,36.133,45.898,0
1539618012.899,43.945,43.457,38.086,41.504,62.500,0
1539618012.903,30.762,42.969,42.480,38.086,65.430,0
1539618012.907,24.902,46.875,41.504,32.715,51.758,0
1539618012.911,21.973,44.434,40.527,33.203,26.855,0
1539618012.915,25.391,41.504,30.762,23.926,16.602,0
1539618012.919,35.645,42.969,33.203,30.273,0.977,0
1539618012.923,26.855,41.016,41.016,34.668,38.574,0
1539618012.926,19.531,35.156,40.527,20.996,101.562,0
1539618012.930,15.137,38.574,33.203,24.902,68.359,0
1539618012.934,24.414,47.363,33.691,30.273,57.617,0
1539618012.938,29.297,41.016,36.133,23.926,60.059,0
1539618012.942,27.832,37.598,39.551,24.902,30.762,0
1539618012.946,20.996,36.133,41.016,23.926,69.824,0
1539618012.950,15.625,32.227,36.621,26.855,69.336,0
1539618012.954,24.414,39.062,39.551,35.156,52.246,0
1539618012.958,26.855,39.551,37.598,23.926,66.895,0
1539618012.962,20.020,47.363,34.180,20.020,81.055,0
1539618012.966,20.508,46.387,28.320,18.555,114.258,0
1539618012.969,33.691,44.922,35.156,20.508,54.688,0
1539618012.973,35.156,52.734,42.480,26.855,26.855,0
1539618012.977,42.480,46.875,33.691,18.555,22.461,0
1539618012.981,25.879,38.086,29.297,14.160,21.973,0
1539618012.985,5.859,35.156,38.086,14.160,54.688,0
1539618012.989,21.973,42.480,40.039,20.508,45.410,0
1539618012.993,20.996,40.527,31.250,18.555,76.660,0
1539618012.997,21.973,41.992,32.227,16.602,49.316,0
1539618013.001,30.762,45.410,39.062,23.926,26.855,0
1539618013.005,29.785,43.945,30.762,23.438,53.711,0
1539618013.008,23.926,49.316,21.973,24.414,40.527,0
1539618013.012,21.484,53.223,26.367,18.066,39.551,0
1539618013.016,24.414,47.852,32.227,20.020,54.688,0
1539618013.020,25.879,37.598,45.898,26.367,52.734,0
1539618013.024,20.020,34.668,38.086,17.090,78.125,0
1539618013.028,22.461,37.109,29.785,14.648,50.293,0
1539618013.032,28.809,42.969,36.621,18.066,40.039,0
1539618013.036,29.297,37.109,43.457,30.762,90.332,0
1539618013.040,22.461,35.645,36.621,29.785,20.996,0
1539618013.044,27.344,49.316,26.367,20.996,17.578,0
1539618013.048,38.086,53.711,37.598,36.133,34.668,0
1539618013.051,42.480,54.688,43.457,33.203,-13.184,0
1539618013.055,35.645,53.223,30.762,16.602,20.020,0
1539618013.059,44.434,46.875,26.367,21.973,48.828,0
1539618013.063,54.688,44.922,33.691,30.273,49.805,0
1539618013.067,39.551,48.828,38.574,39.062,5.859,0
1539618013.071,33.691,42.969,35.645,28.809,6.836,0
1539618013.075,37.598,42.480,38.086,40.039,21.484,0
1539618013.079,37.598,42.480,36.621,45.410,25.391,0
1539618013.083,33.203,30.762,34.180,32.715,8.789,0
1539618013.087,25.879,28.320,36.621,34.668,8.789,0
1539618013.091,29.297,41.016,30.273,29.297,21.484,0
1539618013.094,28.809,48.828,30.762,24.902,41.016,0
1539618013.098,22.461,46.875,37.109,19.531,56.152,0
1539618013.102,31.738,42.480,29.785,19.043,10.254,0
1539618013.106,29.297,35.645,26.855,20.020,0.977,0
1539618013.110,26.855,40.039,34.180,23.926,66.406,0
1539618013.114,19.043,44.434,33.691,20.996,91.797,0
1539618013.118,13.672,42.480,32.227,17.090,62.988,0
1539618013.122,15.137,43.945,29.785,17.090,52.734,0
1539618013.126,13.672,41.016,32.715,18.066,64.453,0
1539618013.130,16.602,35.645,38.086,16.602,35.645,0
1539618013.133,24.414,41.992,39.062,17.090,2.441,0
1539618013.137,20.996,37.598,37.109,21.973,15.137,0
1539618013.141,14.160,28.320,31.250,13.672,41.504,0
1539618013.145,20.020,35.156,31.250,14.648,3.906,0
1539618013.149,23.438,38.574,31.250,20.996,-3.906,0
1539618013.153,25.391,39.062,31.738,16.602,16.602,0
1539618013.157,25.879,36.133,41.016,14.160,28.320,0
1539618013.161,17.578,37.598,41.504,17.090,0.977,0
1539618013.165,17.090,43.945,34.668,19.531,9.766,0
1539618013.169,28.809,42.480,31.738,27.832,35.156,0
1539618013.173,32.227,31.738,35.156,32.715,43.457,0
1539618013.176,26.855,28.809,37.598,21.973,4.395,0
1539618013.180,24.902,39.551,30.762,20.020,-21.484,0
1539618013.184,18.555,45.410,28.809,16.602,32.227,0
1539618013.188,15.625,46.387,29.785,11.719,-2.930,0
1539618013.192,26.367,45.898,28.809,15.625,-24.902,0
1539618013.196,32.227,51.270,31.250,15.625,1.465,0
1539618013.200,25.879,45.898,35.156,9.766,4.395,0
1539618013.204,17.578,43.457,35.645,16.602,5.371,0
1539618013.208,27.832,46.387,28.320,26.855,29.297,0
1539618013.212,33.691,45.898,25.879,20.996,55.664,0
1539618013.216,30.762,47.852,34.668,18.066,104.004,0
1539618013.219,19.043,51.758,31.738,14.160,86.426,0
1539618013.223,15.137,55.664,28.809,19.043,13.672,0
1539618013.227,18.555,47.852,34.180,16.113,26.855,0
1539618013.231,20.020,44.922,33.203,4.395,37.598,0
1539618013.235,27.344,47.363,31.738,14.648,66.895,0
1539618013.239,27.832,43.945,33.691,24.902,90.820,0
1539618013.243,30.762,51.270,31.250,23.438,88.867,0
1539618013.247,40.527,53.223,32.715,23.926,38.574,0
1539618013.251,45.898,50.781,46.875,37.598,19.043,0
1539618013.255,35.645,48.340,47.852,41.992,37.109,0
1539618013.258,22.461,36.133,33.203,32.715,50.781,0
1539618013.262,27.344,40.527,26.367,30.273,72.754,0
1539618013.266,25.391,46.387,39.062,24.902,79.102,0
1539618013.270,33.203,46.875,43.457,22.461,23.926,0
1539618013.274,38.574,46.875,34.668,25.879,10.742,0
1539618013.278,24.414,42.480,39.551,30.762,76.172,0
1539618013.282,33.691,50.781,45.410,29.785,72.266,0
1539618013.286,33.203,55.176,43.457,27.832,56.641,0
1539618013.290,36.621,44.922,41.992,36.133,29.785,0
1539618013.294,47.852,46.875,41.504,29.297,-28.809,0
1539618013.298,32.715,48.828,38.574,19.531,-21.973,0
1539618013.301,21.484,38.574,35.156,32.227,2.930,0
1539618013.305,31.250,43.945,30.762,34.668,-15.137,0
1539618013.309,35.156,48.828,34.668,20.996,1.465,0
1539618013.313,25.879,51.270,32.227,19.043,88.867,0
1539618013.317,29.297,48.828,26.367,22.461,21.484,0
1539618013.321,33.691,47.363,34.668,26.367,-30.762,0
1539618013.325,35.645,50.293,38.574,26.855,39.062,0
1539618013.329,29.297,35.645,33.203,21.484,17.578,0
1539618013.333,39.551,37.598,38.574,25.391,-3.418,0
1539618013.337,40.527,49.316,41.016,23.438,53.223,0
1539618013.341,33.203,51.758,36.621,18.066,69.824,0
1539618013.344,35.156,41.992,34.668,22.949,37.109,0
1539618013.348,28.809,34.180,36.133,31.738,51.270,0
1539618013.352,23.438,42.480,35.156,29.785,103.516,0
1539618013.356,20.020,49.316,32.715,25.391,39.551,0
1539618013.360,25.391,41.504,29.297,25.391,36.133,0
1539618013.364,20.508,38.086,37.598,24.902,99.609,0
1539618013.368,19.531,40.527,44.922,25.391,97.168,0
1539618013.372,19.043,37.109,34.668,29.785,87.402,0
1539618013.376,12.207,29.297,33.691,26.855,21.484,0
1539618013.380,30.273,29.785,46.387,27.832,5.371,0
1539618013.383,29.297,33.203,46.875,23.926,70.801,0
1539618013.387,10.254,32.715,33.203,6.348,64.941,0
1539618013.391,17.578,33.203,29.785,12.695,56.152,0
1539618013.395,24.414,37.598,34.180,24.414,32.715,0
1539618013.399,28.809,41.504,38.086,22.949,31.250,0
1539618013.403,34.180,40.527,42.480,29.297,37.109,0
1539618013.407,46.387,40.527,42.480,27.832,9.277,0
1539618013.411,48.340,42.480,37.109,25.391,23.926,0
1539618013.415,35.156,43.457,34.180,24.414,24.902,0
1539618013.419,28.809,41.992,32.715,21.484,9.766,0
1539618013.423,37.109,43.945,31.738,30.762,47.363,0
1539618013.426,33.691,39.551,37.109,32.227,104.004,0
1539618013.430,26.855,40.039,33.203,24.902,109.375,0
1539618013.434,33.203,41.504,25.879,23.438,80.078,0
1539618013.438,40.527,37.109,25.391,25.391,84.473,0
1539618013.442,29.297,30.273,25.391,22.949,43.457,0
1539618013.446,22.461,33.691,43.457,30.273,34.668,0
1539618013.450,25.879,39.551,52.246,34.668,63.477,0
1539618013.454,23.926,28.809,44.434,32.227,26.855,0
1539618013.458,17.578,25.879,39.062,26.855,28.809,0
1539618013.462,15.625,27.344,33.203,22.949,59.570,0
1539618013.466,22.461,25.879,27.832,26.855,-35.156,0
1539618013.469,24.902,32.715,33.203,27.344,-36.133,0
1539618013.473,15.137,38.086,35.645,20.508,23.926,0
1539618013.477,13.184,36.621,31.250,14.648,42.480,0
1539618013.481,23.926,37.598,31.738,17.578,60.059,0
1539618013.485,14.648,32.715,30.273,19.043,39.062,0
1539618013.489,16.113,31.738,31.250,19.043,70.801,0
1539618013.493,21.973,38.086,29.785,19.043,-4.395,0
1539618013.497,25.879,44.922,30.762,21.973,-17.090,0
1539618013.501,26.855,45.898,30.762,22.461,46.387,0
1539618013.505,22.461,42.969,29.297,20.508,22.949,0
1539618013.508,21.973,39.551,30.273,21.973,1.953,0
1539618013.512,21.973,40.039,28.809,25.879,20.996,0
1539618013.516,26.855,42.480,28.809,23.926,-22.461,0
1539618013.520,21.973,41.504,28.809,21.973,-28.320,0
1539618013.524,20.020,39.551,32.227,21.484,20.020,0
1539618013.528,24.414,42.969,39.551,26.855,-25.391,0
1539618013.532,31.738,46.387,39.551,26.367,1.465,0
1539618013.536,28.809,40.039,31.250,20.020,43.457,0
1539618013.540,24.414,31.250,26.367,25.879,21.973,0
1539618013.544,23.438,27.832,35.156,22.461,42.480,0
1539618013.548,20.020,30.762,33.691,16.113,95.703,0
1539618013.551,20.508,36.133,21.484,21.484,24.414,0
1539618013.555,19.043,37.598,27.344,20.996,-0.488,0
1539618013.559,26.855,36.133,41.016,17.090,33.203,0
1539618013.563,27.344,35.156,48.828,19.531,64.453,0
1539618013.567,31.250,39.062,49.316,15.625,75.195,0
1539618013.571,34.180,44.434,37.109,16.113,9.277,0
1539618013.575,36.133,42.969,34.180,22.949,15.625,0
1539618013.579,37.109,42.480,38.086,19.043,3.418,0
1539618013.583,27.344,40.527,33.203,20.996,10.742,0
1539618013.587,29.785,35.645,32.227,25.879,52.734,0
1539618013.591,34.668,42.969,41.992,27.344,54.199,0
1539618013.594,18.066,41.992,41.992,29.297,43.457,0
1539618013.598,8.301,32.227,37.598,30.762,23.438,0
1539618013.602,24.902,41.504,36.621,30.762,35.156,0
1539618013.606,28.809,46.875,35.645,29.297,72.754,0
1539618013.610,20.996,46.875,37.598,28.809,103.516,0
1539618013.614,31.738,45.410,35.156,22.461,37.109,0
1539618013.618,30.273,43.945,34.180,19.043,-58.105,0
1539618013.622,20.996,44.922,36.133,17.578,11.230,0
1539618013.626,21.973,43.945,35.645,19.043,32.227,0
1539618013.630,20.996,46.387,37.109,29.785,-15.137,0
1539618013.633,21.484,44.922,41.992,33.203,25.879,0
1539618013.637,16.602,44.922,41.992,23.926,11.719,0
1539618013.641,22.949,44.922,37.109,18.555,-34.668,0
1539618013.645,27.344,41.016,44.434,24.414,-18.555,0
1539618013.649,24.414,38.086,48.340,24.414,-47.852,0
1539618013.653,19.043,44.434,37.598,17.090,-42.480,0
1539618013.657,12.695,48.340,37.598,20.508,4.883,0
1539618013.661,9.277,37.598,29.297,10.742,17.578,0
1539618013.665,11.719,33.203,24.414,12.695,-1.465,0
1539618013.669,11.230,41.992,36.621,18.066,-0.488,0
1539618013.673,9.277,47.852,36.133,4.883,34.180,0
1539618013.676,16.602,49.805,35.645,11.230,59.082,0
1539618013.680,11.230,47.852,34.668,12.207,27.344,0
1539618013.684,11.719,46.875,33.691,8.301,1.953,0
1539618013.688,14.160,44.922,33.691,16.113,22.949,0
1539618013.692,17.578,35.645,33.203,17.578,71.289,0
1539618013.696,22.461,39.551,35.645,16.113,97.168,0
1539618013.700,25.391,45.898,34.180,19.531,51.270,0
1539618013.704,37.109,41.992,33.691,21.484,9.277,0
1539618013.708,33.691,44.922,34.668,22.949,-4.395,0
1539618013.712,26.855,49.316,34.180,24.414,16.602,0
1539618013.716,30.762,48.340,37.109,21.484,23.926,0
1539618013.719,26.367,45.410,36.133,19.531,46.387,0
1539618013.723,20.996,46.387,34.180,20.508,50.781,0
1539618013.727,18.066,43.457,34.668,21.484,2.930,0
1539618013.731,19.531,38.574,31.738,23.438,7.812,0
1539618013.735,35.645,42.480,31.250,29.785,54.688,0
1539618013.739,44.434,44.434,32.715,26.367,59.082,0
1539618013.743,34.180,43.945,34.668,20.020,10.742,0
1539618013.747,28.320,45.410,35.156,27.344,84.961,0
1539618013.751,33.203,50.781,34.668,25.879,126.465,0
1539618013.755,44.434,45.898,43.457,21.484,48.340,0
1539618013.758,37.109,44.922,48.340,30.273,63.477,0
1539618013.762,22.949,53.223,38.086,30.762,87.402,0
1539618013.766,27.832,40.039,33.691,26.855,28.320,0
1539618013.770,33.203,29.785,33.691,29.297,-17.578,0
1539618013.774,25.391,40.527,32.227,25.391,-3.906,0
1539618013.778,17.578,46.387,27.344,12.207,21.484,0
1539618013.782,18.555,47.363,23.438,16.113,42.969,0
1539618013.786,28.320,42.480,29.297,21.973,36.133,0
1539618013.790,36.621,44.922,37.109,15.137,60.547,0
1539618013.794,32.227,51.758,39.062,13.672,78.125,0
1539618013.798,21.973,48.340,41.504,14.648,67.871,0
1539618013.801,18.066,39.062,36.621,10.742,59.082,0
1539618013.805,14.160,37.109,24.414,11.230,65.430,0
1539618013.809,16.113,41.016,25.391,11.719,84.473,0
1539618013.813,18.555,40.039,27.344,10.254,78.613,0
1539618013.817,26.855,42.969,25.391,11.719,24.902,0
1539618013.821,33.691,43.457,27.344,13.672,35.645,0
1539618013.825,26.855,43.457,29.297,17.090,27.832,0
1539618013.829,25.879,47.363,33.691,22.461,-27.344,0
1539618013.833,33.691,42.480,34.668,20.020,46.387,0
1539618013.837,30.273,43.945,23.926,20.508,57.617,0
1539618013.841,33.203,41.016,29.297,32.715,46.875,0
1539618013.844,38.574,39.062,41.992,34.180,70.312,0
1539618013.848,26.855,42.480,30.273,24.414,77.148,0
1539618013.852,21.973,40.039,17.578,20.508,88.867,0
1539618013.856,23.438,46.387,18.066,18.555,32.715,0
1539618013.860,26.367,53.711,30.762,20.020,-7.324,0
1539618013.864,28.320,51.270,43.457,25.879,4.395,0
1539618013.868,35.645,43.457,41.504,23.438,41.016,0
1539618013.872,44.434,32.227,41.992,30.762,36.621,0
1539618013.876,34.180,33.691,37.109,28.809,25.391,0
1539618013.880,33.691,41.504,31.250,22.949,33.691,0
1539618013.883,34.668,41.992,36.133,31.738,3.418,0
1539618013.887,27.344,38.086,35.156,26.367,-3.906,0
1539618013.891,22.461,34.180,32.715,24.414,-31.250,0
1539618013.895,23.438,44.434,36.133,21.973,-54.199,0
1539618013.899,25.391,53.223,35.645,24.414,-41.992,0
1539618013.903,23.438,41.504,28.320,26.367,15.137,0
1539618013.907,26.855,38.086,30.273,24.902,88.379,0
1539618013.911,26.855,42.969,30.762,23.438,64.453,0
1539618013.915,26.855,38.086,24.414,22.461,14.160,0
1539618013.919,26.367,36.133,25.879,21.973,44.922,0
1539618013.923,24.414,37.109,31.250,20.996,60.059,0
1539618013.926,26.855,37.109,32.715,18.066,68.848,0
1539618013.930,24.414,35.645,34.668,19.531,27.344,0
1539618013.934,13.184,31.250,35.645,22.949,-4.395,0
1539618013.938,22.949,33.203,39.062,27.832,-16.602,0
1539618013.942,35.156,39.551,43.945,38.086,6.348,0
1539618013.946,32.227,46.387,41.992,42.480,41.504,0
1539618013.950,36.133,42.969,34.668,28.809,21.973,0
1539618013.954,38.086,33.691,36.133,26.367,43.945,0
1539618013.958,34.668,34.180,35.156,35.645,64.453,0
1539618013.962,37.109,38.086,33.203,35.156,68.359,0
1539618013.966,38.086,40.527,37.598,36.133,69.824,0
1539618013.969,30.762,40.039,36.133,31.738,50.293,0
1539618013.973,28.320,33.691,35.645,16.602,11.719,0
1539618013.977,24.902,33.691,30.762,17.090,18.066,0
1539618013.981,31.738,41.016,29.297,26.855,42.480,0
1539618013.985,32.715,45.410,40.039,29.785,31.250,0
1539618013.989,27.344,38.086,36.621,22.461,19.531,0
1539618013.993,24.902,35.645,34.180,24.902,45.410,0
1539618013.997,19.043,35.156,39.551,25.391,35.156,0
1539618014.001,19.531,31.250,41.504,26.367,53.223,0
1539618014.005,28.809,40.039,40.527,26.855,146.973,0
1539618014.008,40.527,42.480,45.410,28.809,94.727,0
1539618014.012,38.086,37.598,42.969,31.250,14.648,0
1539618014.016,30.273,39.551,36.133,32.715,3.418,0
1539618014.020,26.367,39.551,34.668,34.668,-16.602,0
1539618014.024,29.297,41.504,34.180,28.809,32.715,0
1539618014.028,33.203,44.434,34.668,28.809,19.531,0
1539618014.032,36.133,44.434,36.133,26.855,-41.504,0
1539618014.036,39.551,44.434,38.086,26.855,-31.738,0
1539618014.040,34.668,37.598,33.203,25.391,11.719,0
1539618014.044,30.273,38.574,29.785,14.160,-8.301,0
1539618014.048,36.133,41.992,30.273,10.742,-15.625,0
1539618014.051,36.133,40.039,32.715,21.484,18.066,0
1539618014.055,36.621,40.527,35.156,26.855,23.926,0
1539618014.059,31.250,38.086,35.645,23.438,25.879,0
1539618014.063,28.809,39.551,35.156,20.996,14.160,0
1539618014.067,34.180,44.922,39.551,29.297,5.859,0
1539618014.071,38.086,34.180,36.133,32.715,11.230,0
1539618014.075,39.551,31.250,31.250,32.715,38.574,0
1539618014.079,35.645,42.480,36.621,35.645,56.152,0
1539618014.083,26.367,39.062,36.621,25.391,54.688,0
1539618014.087,20.020,33.691,34.180,23.438,36.621,0
1539618014.091,31.250,43.457,38.086,29.785,28.809,0
1539618014.094,34.668,50.781,37.598,31.738,1.465,0
1539618014.098,29.297,39.062,31.250,25.391,4.883,0
1539618014.102,31.738,41.504,35.156,25.391,58.594,0
1539618014.106,39.062,50.293,36.621,26.855,50.781,0
1539618014.110,32.227,46.875,31.250,24.902,14.160,2
1539618014.114,37.598,44.922,32.715,35.156,-3.906,0
1539618014.118,45.898,45.898,33.691,35.156,21.973,0
1539618014.122,27.344,43.945,29.297,27.344,23.926,0
1539618014.126,25.391,38.086,32.227,25.391,-16.602,0
1539618014.130,23.926,38.574,37.598,30.273,-31.250,0
1539618014.133,34.668,43.945,38.086,31.738,-20.996,0
1539618014.137,25.879,39.062,34.180,21.973,-24.902,0
1539618014.141,2.930,33.691,31.250,21.484,-17.578,0
1539618014.145,23.926,42.480,37.109,26.855,41.016,0
1539618014.149,32.227,43.457,34.180,21.973,38.574,0
1539618014.153,29.297,42.480,29.785,20.508,0.488,0
1539618014.157,39.062,47.363,34.668,30.273,20.996,0
1539618014.161,33.203,46.387,35.156,20.508,60.547,0
1539618014.165,32.715,47.852,36.621,20.996,19.043,0
1539618014.169,36.621,46.387,37.109,28.809,73.730,0
1539618014.173,32.715,37.598,36.621,29.785,82.520,0
1539618014.176,24.902,43.457,38.086,21.973,-17.578,0
1539618014.180,21.973,46.875,35.645,14.648,33.203,0
1539618014.184,24.902,42.480,31.738,22.461,81.543,0
1539618014.188,30.762,42.480,31.250,21.484,24.902,0
1539618014.192,33.203,38.574,34.668,21.484,17.578,0
1539618014.196,22.949,43.457,34.180,24.414,41.992,0
1539618014.200,22.949,47.363,28.809,24.902,39.062,0
1539618014.204,20.996,41.504,26.367,16.602,45.410,0
1539618014.208,19.531,42.480,34.180,11.719,16.602,0
1539618014.212,18.066,46.875,40.039,17.090,26.367,0
1539618014.216,22.949,48.340,39.062,20.508,87.891,0
1539618014.219,18.066,40.527,36.621,14.160,85.938,0
1539618014.223,8.789,35.645,33.203,10.742,43.945,0
1539618014.227,14.648,43.945,32.227,18.555,-6.836,0
1539618014.231,6.348,43.945,36.133,23.438,27.832,0
1539618014.235,12.695,33.691,37.598,26.367,2.930,0
1539618014.239,29.785,38.574,41.992,28.320,5.371,0
1539618014.243,29.785,48.340,41.992,27.344,35.156,0
1539618014.247,37.598,53.223,37.598,30.273,29.297,0
1539618014.251,39.062,49.805,35.156,26.855,21.973,0
1539618014.255,29.297,48.340,34.668,23.926,60.059,0
1539618014.258,27.832,53.711,30.762,34.180,54.199,0
1539618014.262,31.250,47.363,24.902,33.203,31.738,0
1539618014.266,35.156,41.992,35.156,27.832,71.777,0
1539618014.270,34.180,50.781,40.039,30.762,0.488,0
1539618014.274,30.273,53.711,38.574,29.785,-25.391,0
1539618014.278,25.391,54.199,44.922,20.996,-19.043,0
1539618014.282,9.277,47.852,42.480,7.324,-17.578,0
1539618014.286,9.277,47.363,36.133,5.859,37.598,0
1539618014.290,20.020,49.805,32.715,6.836,41.016,0
1539618014.294,19.531,46.387,35.645,6.348,21.484,0
1539618014.298,14.160,44.434,36.133,4.883,21.484,0
1539618014.301,23.926,49.316,31.250,9.766,3.906,0
1539618014.305,31.738,54.688,40.527,27.344,-23.926,0
1539618014.309,34.668,46.875,41.016,32.227,5.371,0
1539618014.313,35.645,36.621,32.715,22.461,13.184,0
1539618014.317,26.367,47.363,36.621,22.949,55.664,0
1539618014.321,31.250,50.293,39.062,29.297,79.102,0
1539618014.325,36.133,39.551,36.133,18.555,53.711,0
1539618014.329,35.645,44.922,38.086,15.137,71.289,0
1539618014.333,32.227,50.781,35.645,23.438,115.234,0
1539618014.337,33.203,53.711,36.133,26.855,79.102,0
1539618014.341,45.410,56.641,43.945,30.273,53.223,0
1539618014.344,40.527,54.199,44.434,41.992,53.223,0
1539618014.348,33.203,55.664,39.551,41.992,39.551,0
1539618014.352,41.504,57.617,38.086,31.250,53.223,0
1539618014.356,42.969,49.805,38.086,32.715,31.250,0
1539618014.360,38.574,41.504,38.574,36.133,-10.254,0
1539618014.364,37.109,40.527,37.109,26.855,-4.883,0
1539618014.368,38.574,48.828,41.504,29.297,33.691,0
1539618014.372,42.969,52.246,48.340,41.016,68.359,0
1539618014.376,33.203,51.270,44.922,35.156,42.480,0
1539618014.380,28.809,50.781,37.598,26.367,15.137,0
1539618014.383,27.344,45.898,33.203,25.879,69.336,0
1539618014.387,34.668,42.969,36.621,31.250,36.621,0
1539618014.391,41.016,52.734,38.086,31.250,45.410,0
1539618014.395,34.180,58.594,36.133,25.879,71.289,0
1539618014.399,30.762,52.734,35.645,37.109,37.109,0
1539618014.403,33.691,46.875,34.668,35.645,50.781,0
1539618014.407,34.180,36.133,41.992,25.391,24.414,0
1539618014.411,30.762,37.598,43.945,25.391,-0.488,0
1539618014.415,27.344,43.945,39.551,20.020,21.973,0
1539618014.419,22.949,43.457,46.875,23.926,24.414,0
1539618014.423,33.203,45.898,48.340,32.715,35.645,0
1539618014.426,28.809,44.434,35.156,20.996,34.668,0
1539618014.430,18.066,48.828,34.668,5.371,19.043,0
1539618014.434,23.926,51.270,35.156,15.137,43.945,0
1539618014.438,21.973,51.270,36.621,22.949,72.266,0
1539618014.442,23.438,50.781,38.574,24.414,91.309,0
1539618014.446,19.531,47.852,42.480,26.855,72.266,0
1539618014.450,25.391,43.457,41.504,24.414,25.879,0
1539618014.454,40.527,44.434,36.621,25.391,38.086,0
1539618014.458,38.086,45.898,36.133,30.273,87.891,0
1539618014.462,34.180,45.410,38.574,33.691,81.543,0
1539618014.466,32.227,45.898,38.574,28.809,-1.465,0
1539618014.469,32.227,48.828,36.621,25.391,40.527,0
1539618014.473,31.738,51.758,39.551,31.738,87.402,0
1539618014.477,35.645,48.340,35.645,30.273,19.043,0
1539618014.481,26.855,45.410,35.156,28.809,39.062,0
1539618014.485,30.273,47.363,36.133,31.738,10.742,0
1539618014.489,32.227,47.363,33.203,27.344,-6.348,0
1539618014.493,28.320,46.875,34.668,22.949,4.395,0
1539618014.497,39.062,46.875,38.086,26.855,23.926,0
1539618014.501,32.227,51.270,34.180,28.809,34.668,0
1539618014.505,22.949,52.246,33.203,22.949,55.664,0
1539618014.508,25.879,50.781,38.574,20.996,76.172,0
1539618014.512,33.203,48.340,39.062,27.832,34.180,0
1539618014.516,34.668,51.270,33.691,29.785,23.926,0
1539618014.520,28.320,47.852,31.250,21.973,57.129,0
1539618014.524,34.668,44.922,35.645,24.414,31.738,0
1539618014.528,45.898,47.363,31.738,30.762,-6.836,0
1539618014.532,38.574,47.363,30.273,21.973,-38.086,0
1539618014.536,29.785,50.781,34.668,24.902,-53.223,0
1539618014.540,27.344,50.781,35.156,25.879,5.371,0
1539618014.544,26.855,46.875,32.227,18.066,23.438,0
1539618014.548,26.855,51.758,29.297,19.531,36.621,0
1539618014.551,30.762,50.781,29.297,23.438,65.918,0
1539618014.555,35.645,42.480,32.227,25.879,72.754,0
1539618014.559,31.250,45.410,38.574,27.344,21.484,0
1539618014.563,26.367,49.316,41.016,30.762,-10.254,0
1539618014.567,41.992,49.316,40.527,33.691,8.301,0
1539618014.571,42.480,48.340,41.504,41.992,-6.348,0
1539618014.575,38.086,49.316,41.992,40.527,25.879,0
1539618014.579,43.945,42.969,41.016,34.180,65.918,0
1539618014.583,39.062,41.016,40.039,36.621,56.152,0
1539618014.587,38.574,50.781,44.922,37.598,58.594,0
1539618014.591,26.367,51.270,43.457,31.250,51.270,0
1539618014.594,12.207,42.480,35.645,25.879,18.555,0
1539618014.598,27.832,34.668,40.527,19.043,3.906,0
1539618014.602,27.344,42.480,45.898,23.926,19.531,0
1539618014.606,21.973,42.480,40.527,36.133,33.691,0
1539618014.610,29.785,41.016,36.133,28.320,29.297,0
1539618014.614,21.484,49.316,37.109,9.277,24.902,0
1539618014.618,24.902,47.852,36.621,8.789,63.477,0
1539618014.622,30.762,44.434,36.621,21.973,104.492,0
1539618014.626,40.039,45.898,37.109,22.949,47.363,0
1539618014.630,51.270,50.781,32.227,20.508,18.066,0
1539618014.633,40.039,51.758,29.785,16.113,21.484,0
1539618014.637,33.203,44.434,36.621,15.625,36.133,0
1539618014.641,31.250,41.992,42.480,20.508,76.172,0
1539618014.645,32.227,43.945,42.969,22.949,14.648,0
1539618014.649,36.133,45.898,44.434,26.367,-41.016,0
1539618014.653,19.043,41.992,37.598,29.297,-8.789,0
1539618014.657,13.672,41.992,34.668,22.949,34.668,0
1539618014.661,19.531,47.363,35.156,22.949,51.270,0
1539618014.665,32.227,46.387,38.574,33.203,-5.859,0
1539618014.669,34.180,44.922,39.062,29.297,-43.945,0
1539618014.673,31.250,43.457,41.504,29.785,43.945,0
1539618014.676,41.504,37.109,43.945,41.016,3.906,0
1539618014.680,37.109,38.574,36.133,26.855,-37.109,0
1539618014.684,27.344,48.340,35.645,18.555,101.074,0
1539618014.688,26.367,48.828,38.086,36.621,126.953,0
1539618014.692,24.414,45.898,34.180,33.203,47.852,0
1539618014.696,25.879,43.457,33.691,23.926,30.762,0
1539618014.700,37.598,36.621,39.062,30.762,47.363,0
1539618014.704,35.645,34.180,36.621,27.832,43.945,0
1539618014.708,34.180,36.133,29.297,27.832,58.105,0
1539618014.712,32.715,37.598,24.902,28.320,58.105,0
1539618014.716,33.203,36.133,26.367,22.949,33.203,0
1539618014.719,42.480,34.180,36.621,24.414,42.969,0
1539618014.723,33.203,32.227,34.668,28.809,52.734,0
1539618014.727,13.184,28.809,27.832,19.043,59.082,0
1539618014.731,20.996,29.785,34.180,16.602,18.066,0
1539618014.735,30.762,31.738,37.109,23.926,-1.465,0
1539618014.739,34.180,38.086,37.109,34.180,43.945,0
1539618014.743,38.574,39.062,37.109,39.062,37.109,0
1539618014.747,35.645,35.156,37.598,31.738,12.695,0
1539618014.751,37.109,36.621,39.551,31.250,36.133,0
1539618014.755,40.039,46.387,40.527,37.598,90.820,0
1539618014.758,31.738,41.504,39.062,43.457,83.984,0
1539618014.762,33.203,31.738,38.574,31.250,47.852,0
1539618014.766,26.367,39.062,37.598,25.879,42.969,0
1539618014.770,29.297,41.992,36.621,34.180,33.691,0
1539618014.774,37.109,34.180,42.969,40.039,86.426,0
1539618014.778,41.504,37.109,42.969,39.062,23.438,0
1539618014.782,44.434,42.969,41.504,36.133,-48.828,0
1539618014.786,38.574,49.316,43.457,41.016,-1.465,0
1539618014.790,32.715,47.363,41.504,37.598,25.391,0
1539618014.794,33.691,39.551,40.039,35.645,36.133,0
1539618014.798,37.109,40.039,35.156,37.109,47.852,0
1539618014.801,34.668,38.086,33.203,34.668,42.969,0
1539618014.805,36.621,41.504,36.133,35.645,79.590,0
1539618014.809,38.574,43.945,35.156,30.762,98.145,0
1539618014.813,26.855,40.039,35.156,33.203,57.617,0
1539618014.817,20.996,36.133,38.086,29.785,70.801,0
1539618014.821,22.461,32.227,42.969,25.391,55.176,0
1539618014.825,23.926,30.762,47.363,32.227,-2.930,0
1539618014.829,31.250,33.203,44.434,32.227,20.020,0
1539618014.833,35.156,27.832,43.457,32.715,13.672,0
1539618014.837,29.297,33.203,43.457,37.109,-16.602,0
1539618014.841,24.902,41.992,29.785,24.902,33.691,0
1539618014.844,26.855,32.715,21.973,23.438,37.598,0
1539618014.848,35.156,23.438,34.180,38.574,-7.812,0
1539618014.852,49.316,32.715,41.016,46.387,-38.086,0
1539618014.856,45.410,42.969,32.715,39.062,-35.645,0
1539618014.860,32.227,42.480,29.785,30.273,-0.977,0
1539618014.864,32.715,39.551,31.738,35.156,2.441,0
1539618014.868,31.738,41.992,33.203,29.785,31.250,0
1539618014.872,24.414,41.016,32.715,20.020,29.297,0
1539618014.876,20.020,37.109,31.738,20.996,49.805,0
1539618014.880,33.203,35.156,33.691,18.066,67.871,0
1539618014.883,23.926,28.809,33.691,4.395,37.598,0
1539618014.887,5.859,28.320,31.738,10.254,-4.883,0
1539618014.891,14.648,33.203,32.227,16.113,19.531,0
1539618014.895,24.414,32.227,35.156,19.043,41.016,0
1539618014.899,23.926,28.809,37.598,29.297,8.301,0
1539618014.903,24.414,28.809,37.109,33.691,-6.836,0
1539618014.907,23.438,23.438,33.691,32.715,27.832,0
1539618014.911,20.020,28.320,35.645,31.250,25.879,0
1539618014.915,22.461,33.203,35.645,22.949,10.742,0
1539618014.919,21.484,32.227,34.180,18.555,59.570,0
1539618014.923,28.320,32.227,35.645,20.996,48.828,0
1539618014.926,34.180,36.621,44.434,36.133,58.105,0
1539618014.930,26.367,38.574,44.434,31.738,53.711,0
1539618014.934,23.438,27.344,30.273,14.160,-2.441,0
1539618014.938,31.738,23.438,24.414,13.672,1.953,0
1539618014.942,32.715,38.086,29.297,16.602,18.066,0
1539618014.946,20.996,40.527,33.203,13.672,57.129,0
1539618014.950,17.578,34.180,32.715,7.324,72.754,0
1539618014.954,20.020,42.480,29.297,9.766,11.230,0
1539618014.958,24.414,48.828,25.879,12.695,11.719,0
1539618014.962,35.645,46.875,26.367,18.066,48.828,0
1539618014.966,26.367,39.551,31.250,29.297,99.121,0
1539618014.969,33.691,41.992,46.875,45.410,89.355,0
1539618014.973,32.227,42.969,47.363,39.551,58.594,0
1539618014.977,16.602,36.621,38.086,24.902,70.312,0
1539618014.981,19.531,37.109,36.621,26.367,31.250,0
1539618014.985,20.020,34.668,34.180,20.020,61.035,0
1539618014.989,27.344,27.832,35.156,16.113,101.562,0
1539618014.993,35.645,21.973,36.621,21.973,51.758,0
1539618014.997,33.203,26.367,38.086,24.902,-8.789,0
1539618015.001,30.762,35.645,38.086,32.227,6.348,0
1539618015.005,23.438,41.504,35.156,35.156,14.160,0
1539618015.008,28.809,43.945,39.551,29.785,41.992,0
1539618015.012,32.715,33.203,38.086,21.973,60.059,0
1539618015.016,31.738,28.809,37.109,22.949,35.156,0
1539618015.020,28.320,36.621,40.527,28.320,50.293,0
1539618015.024,16.602,40.527,34.668,25.879,53.711,0
1539618015.028,21.973,41.016,31.250,23.926,90.820,0
1539618015.032,37.598,36.133,36.621,33.203,82.031,0
1539618015.036,31.250,34.180,34.668,29.297,-8.301,0
1539618015.040,34.180,41.016,29.297,18.066,-4.883,0
1539618015.044,27.832,44.922,31.250,21.973,40.527,0
1539618015.048,19.531,47.363,29.297,25.879,79.102,0
1539618015.051,32.227,51.758,25.391,27.832,108.398,0
1539618015.055,28.320,51.270,21.973,18.555,59.570,0
1539618015.059,22.949,38.574,26.855,7.812,-1.953,0
1539618015.063,27.344,32.227,31.738,13.184,4.883,0
1539618015.067,33.203,36.621,30.273,12.207,39.551,0
1539618015.071,38.086,39.551,32.227,13.672,6.348,0
1539618015.075,31.250,38.086,33.691,22.461,-23.438,0
1539618015.079,23.926,32.227,31.250,22.461,4.395,0
1539618015.083,22.461,32.715,25.879,14.160,21.973,0
1539618015.087,21.973,28.809,28.320,19.043,48.340,0
1539618015.091,36.621,32.227,32.227,19.531,34.180,0
1539618015.094,29.297,39.551,31.738,15.625,40.527,0
1539618015.098,26.367,39.062,37.598,25.879,37.109,0
1539618015.102,35.156,34.668,39.551,30.762,-35.156,0
1539618015.106,24.902,34.180,36.133,24.414,8.301,0
1539618015.110,21.484,35.156,38.574,14.648,67.871,0
1539618015.114,22.461,28.320,38.086,16.602,49.316,0
1539618015.118,16.602,23.438,33.203,22.461,51.758,0
1539618015.122,22.949,26.367,34.180,14.648,74.219,0
1539618015.126,26.367,36.133,34.180,9.766,72.266,0
1539618015.130,19.043,36.621,30.762,19.043,67.383,0
1539618015.133,27.832,37.109,33.691,21.973,45.410,0
1539618015.137,30.762,35.156,37.109,20.508,39.551,0
1539618015.141,28.809,25.879,35.645,31.738,62.012,0
1539618015.145,24.414,26.855,36.621,34.668,60.059,0
1539618015.149,20.996,34.180,40.039,29.785,78.613,0
1539618015.153,30.273,40.527,38.574,31.250,4.395,0
1539618015.157,24.414,35.645,37.109,27.344,38.574,0
1539618015.161,23.438,30.762,41.992,29.297,40.527,0
1539618015.165,33.691,39.062,37.109,28.320,47.363,0
1539618015.169,32.227,41.016,33.203,23.926,75.195,0
1539618015.173,21.484,40.039,24.902,25.391,59.082,0
1539618015.176,21.484,38.086,23.438,25.879,59.570,0
1539618015.180,34.180,31.738,34.180,27.344,44.434,0
1539618015.184,32.227,45.410,32.715,23.438,41.016,0
1539618015.188,29.297,53.711,30.762,20.508,21.484,0
1539618015.192,40.527,52.246,39.551,33.203,-33.203,0
1539618015.196,37.109,52.734,42.480,41.992,-24.902,0
1539618015.200,32.227,51.270,41.016,43.457,-35.156,0
1539618015.204,38.574,44.922,43.945,42.480,6.836,0
1539618015.208,36.621,42.969,42.480,33.203,6.348,0
1539618015.212,41.504,42.480,41.992,33.691,-9.277,0
1539618015.216,37.109,43.945,41.992,32.715,21.973,0
1539618015.219,33.203,47.852,41.992,26.855,57.617,0
1539618015.223,38.086,42.969,42.480,27.344,73.242,0
1539618015.227,30.762,39.551,40.039,27.832,31.250,0
1539618015.231,23.926,43.945,40.527,28.320,35.645,0
1539618015.235,25.391,44.434,43.457,27.832,24.902,0
1539618015.239,28.320,44.434,42.480,30.762,-0.977,0
1539618015.243,27.344,49.316,42.480,32.227,34.180,0
1539618015.247,34.180,49.316,42.969,33.203,51.270,0
1539618015.251,40.527,43.945,38.086,32.715,5.859,0
1539618015.255,43.457,42.480,46.387,45.410,-1.465,0
1539618015.258,59.082,46.875,56.641,48.340,64.453,0
1539618015.262,45.898,43.945,41.992,26.855,79.590,0
1539618015.266,22.461,44.922,33.691,19.043,-22.949,0
1539618015.270,21.484,52.734,37.598,19.531,-39.551,0
1539618015.274,27.832,51.758,40.039,24.414,-26.855,0
1539618015.278,26.855,50.781,37.598,26.367,4.883,0
1539618015.282,33.203,49.805,32.227,30.273,-3.418,0
1539618015.286,34.180,45.410,27.344,28.320,20.508,0
1539618015.290,40.527,45.410,28.320,29.297,76.172,0
1539618015.294,40.527,44.922,29.297,32.715,46.387,0
1539618015.298,26.855,44.922,31.250,24.902,32.715,0
1539618015.301,27.832,41.016,34.180,18.555,31.250,0
1539618015.305,34.668,42.480,30.762,22.949,30.762,0
1539618015.309,32.715,50.293,29.785,20.996,29.297,0
1539618015.313,24.414,48.340,35.645,19.043,48.828,0
1539618015.317,26.855,43.945,40.039,24.902,106.445,0
1539618015.321,25.879,39.062,39.551,5.859,54.199,0
1539618015.325,13.672,33.203,30.762,-2.930,-5.371,0
1539618015.329,23.926,40.039,26.367,11.230,9.277,0
1539618015.333,27.832,42.480,34.668,20.996,36.133,0
1539618015.337,15.625,40.527,43.457,25.879,55.176,0
1539618015.341,32.227,37.598,46.387,25.879,19.043,0
1539618015.344,35.645,38.574,43.945,21.973,-7.812,0
1539618015.348,19.043,45.898,40.527,17.578,54.199,0
1539618015.352,21.973,47.363,39.062,18.066,57.129,0
1539618015.356,31.250,51.758,37.598,22.949,43.945,0
1539618015.360,26.855,50.781,34.668,23.926,71.777,0
1539618015.364,20.508,40.039,32.227,17.090,35.156,0
1539618015.368,14.648,35.156,33.691,14.648,32.715,0
1539618015.372,11.719,32.227,33.691,15.137,45.898,0
1539618015.376,20.020,35.156,36.133,13.672,27.832,0
1539618015.380,27.832,36.621,40.039,13.672,68.848,0
1539618015.383,20.996,39.062,39.062,12.207,77.637,0
1539618015.387,11.719,43.945,35.645,20.508,32.715,0
1539618015.391,16.602,46.387,35.645,20.996,-4.883,0
1539618015.395,19.043,43.945,31.738,8.789,27.344,0
1539618015.399,18.555,41.992,34.180,13.672,38.574,0
1539618015.403,23.926,40.527,43.457,25.879,-17.090,0
1539618015.407,16.602,28.809,38.086,20.996,-24.414,0
1539618015.411,18.066,32.715,33.691,16.113,7.324,0
1539618015.415,27.832,40.039,33.691,20.508,65.430,0
1539618015.419,28.320,38.574,34.668,20.508,109.863,0
1539618015.423,25.879,38.086,45.898,34.668,28.809,0
1539618015.426,22.949,37.598,47.363,39.062,40.039,0
1539618015.430,27.344,44.922,44.922,23.438,77.148,0
1539618015.434,19.043,45.898,43.457,20.508,48.340,0
1539618015.438,14.648,41.016,33.203,14.648,70.801,0
1539618015.442,15.625,40.527,28.320,10.254,88.379,0
1539618015.446,11.719,42.969,31.250,14.648,64.941,0
1539618015.450,14.648,41.504,36.133,12.207,31.250,1
1539618015.454,16.113,37.598,39.062,17.578,23.438,0
1539618015.458,13.184,39.551,38.574,18.066,45.410,0
1539618015.462,20.996,43.945,38.574,11.230,6.836,0
1539618015.466,18.066,40.527,41.992,10.742,24.414,0
1539618015.469,17.578,32.227,40.527,9.277,73.242,0
1539618015.473,20.996,34.668,41.016,9.277,36.133,0
1539618015.477,7.324,40.039,35.645,9.766,2.441,0
1539618015.481,10.742,40.527,32.227,18.066,38.086,0
1539618015.485,20.996,41.016,36.133,22.461,32.715,0
1539618015.489,23.926,42.969,36.621,20.508,37.598,0
1539618015.493,24.902,39.551,35.156,26.855,70.312,0
1539618015.497,32.227,40.527,36.621,26.367,36.621,0
1539618015.501,34.180,42.480,37.109,28.809,62.988,0
1539618015.505,35.645,41.016,35.645,33.203,90.820,0
1539618015.508,43.457,42.480,38.574,33.691,69.336,0
1539618015.512,42.969,42.969,38.574,36.133,56.641,0
1539618015.516,39.551,47.363,39.551,32.227,88.867,0
1539618015.520,45.410,55.176,42.969,36.133,114.746,0
1539618015.524,42.969,50.293,34.180,34.180,41.504,0
1539618015.528,33.203,42.480,31.250,29.785,49.805,0
1539618015.532,45.898,36.621,39.062,32.715,56.641,0
1539618015.536,59.570,42.480,36.621,31.738,-4.883,0
1539618015.540,52.734,50.781,34.180,37.109,33.203,0
1539618015.544,36.621,45.898,35.645,29.297,66.895,0
1539618015.548,32.715,41.504,36.621,22.949,32.227,0
1539618015.551,33.691,39.551,38.574,26.367,55.664,0
1539618015.555,29.297,43.457,34.668,20.996,65.430,0
1539618015.559,32.715,49.316,34.668,24.414,47.852,0
1539618015.563,39.062,40.527,41.504,29.297,70.801,0
1539618015.567,33.691,30.762,40.039,24.414,73.730,0
1539618015.571,22.949,30.762,38.086,27.344,65.918,0
1539618015.575,23.926,29.785,34.668,24.414,32.227,0
1539618015.579,29.785,35.645,33.203,24.414,3.906,0
1539618015.583,24.902,39.062,34.180,30.273,-11.719,0
1539618015.587,33.691,38.086,39.062,30.273,-8.301,0
1539618015.591,38.574,43.457,39.551,30.273,34.668,0
1539618015.594,34.668,47.852,34.668,33.203,4.395,0
1539618015.598,43.457,46.875,36.621,34.180,-22.461,0
1539618015.602,48.828,46.387,32.227,26.855,-14.160,0
1539618015.606,34.180,40.039,28.320,13.184,-31.738,0
1539618015.610,22.949,36.621,37.598,16.113,-18.066,0
1539618015.614,31.738,39.062,40.039,27.344,-25.879,0
1539618015.618,33.691,37.598,35.645,29.785,53.711,0
1539618015.622,32.715,41.504,35.156,26.855,83.984,0
1539618015.626,27.344,35.156,38.086,32.227,34.180,0
1539618015.630,23.438,33.691,38.574,31.250,17.578,0
1539618015.633,21.484,41.504,36.621,15.625,8.301,0
1539618015.637,21.484,47.363,34.180,15.625,91.797,0
1539618015.641,30.762,43.945,28.809,18.066,57.129,0
1539618015.645,26.855,36.621,31.738,19.531,-15.625,0
1539618015.649,21.973,43.945,33.203,28.320,20.020,0
1539618015.653,21.484,45.898,32.715,23.926,6.836,0
1539618015.657,18.066,40.039,34.668,17.090,1.465,0
1539618015.661,17.090,41.992,32.227,17.090,39.551,0
1539618015.665,24.902,43.457,37.109,18.555,43.457,0
1539618015.669,27.344,45.410,40.039,24.414,7.324,0
1539618015.673,22.949,45.898,42.969,29.785,0.488,0
1539618015.676,33.203,39.062,43.945,26.367,28.320,0
1539618015.680,28.809,34.668,37.109,19.043,60.059,0
1539618015.684,23.438,34.668,32.227,23.438,79.590,0
1539618015.688,33.203,39.062,35.645,30.762,17.090,0
1539618015.692,36.133,49.805,34.180,26.367,25.879,0
1539618015.696,43.457,53.223,33.691,18.066,55.664,0
1539618015.700,43.457,48.828,32.227,26.367,73.730,0
1539618015.704,40.039,51.758,29.297,37.598,87.891,0
1539618015.708,52.246,50.781,38.574,34.668,42.480,0
1539618015.712,59.082,58.105,44.434,36.621,40.527,0
1539618015.716,60.547,63.477,45.410,41.504,101.562,0
1539618015.719,49.805,54.199,46.387,43.945,95.703,0
1539618015.723,39.551,45.898,46.875,38.574,27.832,0
1539618015.727,51.270,44.434,42.969,34.180,10.742,0
1539618015.731,54.199,46.387,39.062,42.480,56.641,0
1539618015.735,60.059,48.340,37.109,35.156,48.828,0
1539618015.739,54.199,51.270,36.621,25.879,11.230,0
1539618015.743,47.363,55.176,46.387,42.969,20.020,0
1539618015.747,50.293,53.223,55.176,49.805,61.035,0
1539618015.751,34.180,45.410,45.410,41.992,61.523,0
1539618015.755,16.602,38.086,40.527,34.180,11.719,0
1539618015.758,17.090,41.504,48.340,33.691,35.156,0
1539618015.762,34.668,42.969,50.781,37.598,23.438,0
1539618015.766,36.133,35.645,45.898,32.715,-36.621,0
1539618015.770,28.809,34.668,45.898,32.715,14.648,0
1539618015.774,34.180,40.527,38.574,26.367,86.426,0
1539618015.778,37.109,49.316,41.992,25.879,69.824,0
1539618015.782,37.109,44.922,49.805,27.832,51.270,0
1539618015.786,42.969,45.898,47.852,27.344,18.555,0
1539618015.790,44.922,47.852,44.434,27.344,19.531,0
1539618015.794,38.086,39.551,39.062,30.273,56.641,0
1539618015.798,41.992,44.434,45.410,38.574,66.406,0
1539618015.801,43.945,49.316,51.270,38.574,69.336,0
1539618015.805,38.574,50.781,46.875,36.133,13.184,0
1539618015.809,32.227,46.875,43.945,42.969,-14.160,0
1539618015.813,31.250,35.156,37.598,33.691,2.441,0
1539618015.817,32.715,42.480,31.738,30.273,-16.602,0
1539618015.821,29.785,45.410,33.203,35.156,34.180,0
1539618015.825,32.715,35.645,37.598,26.855,82.520,0
1539618015.829,37.109,39.062,43.457,28.809,42.480,0
1539618015.833,38.086,44.434,38.574,29.785,21.973,0
1539618015.837,38.086,46.875,38.086,35.645,8.789,0
1539618015.841,36.133,47.363,40.039,38.574,6.836,0
1539618015.844,45.898,46.875,39.062,31.738,33.203,0
1539618015.848,41.016,40.527,41.504,37.598,20.020,0
1539618015.852,38.086,41.016,38.086,49.805,-17.090,0
1539618015.856,38.086,48.828,39.062,38.574,-18.066,0
1539618015.860,25.391,51.270,37.598,29.297,29.785,0
1539618015.864,31.250,51.758,32.227,35.645,52.734,0
1539618015.868,45.410,55.176,34.668,32.715,11.719,0
1539618015.872,36.133,55.664,35.645,25.391,13.184,0
1539618015.876,30.762,48.828,35.156,18.555,17.090,0
1539618015.880,29.297,45.898,34.668,22.461,30.273,0
1539618015.883,29.785,46.387,37.109,22.949,21.973,0
1539618015.887,29.297,51.758,33.691,15.625,16.602,0
1539618015.891,25.879,46.387,32.715,19.531,40.527,0
1539618015.895,30.762,40.039,38.574,30.762,32.715,0
1539618015.899,28.320,42.969,34.668,26.367,35.156,0
1539618015.903,23.926,38.574,33.203,21.973,36.133,0
1539618015.907,22.461,37.109,38.086,24.414,56.152,0
1539618015.911,25.879,44.922,33.691,24.414,100.098,0
1539618015.915,34.668,48.828,32.715,26.367,61.035,0
1539618015.919,27.344,45.898,39.062,28.320,-20.996,0
1539618015.923,16.113,40.039,40.039,23.926,15.137,0
1539618015.926,16.602,41.016,42.480,28.320,62.500,0
1539618015.930,29.297,41.992,44.922,34.180,23.926,0
1539618015.934,41.504,44.434,37.109,32.715,28.809,0
1539618015.938,38.574,43.945,26.367,33.691,42.480,0
1539618015.942,42.480,41.992,32.715,41.504,32.715,0
1539618015.946,40.527,41.992,37.109,40.527,11.719,0
1539618015.950,31.738,42.969,34.668,34.668,-38.086,0
1539618015.954,33.691,49.805,37.598,30.762,1.953,0
1539618015.958,35.645,46.875,39.551,30.273,58.594,0
1539618015.962,38.574,45.898,36.621,25.391,32.227,0
1539618015.966,33.203,47.852,29.785,18.555,11.719,0
1539618015.969,22.461,43.945,29.297,21.973,17.578,0
1539618015.973,30.273,41.992,32.715,20.508,35.156,0
1539618015.977,36.621,39.551,35.156,25.879,65.430,0
1539618015.981,34.180,38.574,37.598,33.203,89.844,0
1539618015.985,41.992,47.852,41.504,32.715,43.457,0
1539618015.989,42.969,47.852,40.527,31.250,1.465,0
1539618015.993,38.574,43.945,37.109,31.738,29.297,0
1539618015.997,35.156,42.480,38.086,35.645,54.688,0
1539618016.001,28.809,37.109,38.574,37.598,19.043,0
1539618016.005,30.762,30.762,41.504,36.621,48.828,0
1539618016.008,29.297,29.297,43.945,29.297,24.414,0
1539618016.012,32.227,35.156,37.598,25.879,23.926,0
1539618016.016,37.598,38.574,32.715,29.785,34.180,0
1539618016.020,36.621,41.992,36.133,25.391,26.367,0
1539618016.024,37.598,41.992,35.645,25.391,60.059,0
1539618016.028,32.227,45.410,30.762,25.879,72.754,0
1539618016.032,35.645,42.969,32.227,17.090,91.309,0
1539618016.036,34.180,38.086,35.645,23.438,83.984,0
1539618016.040,34.180,37.598,28.320,28.809,75.195,0
1539618016.044,35.156,42.480,28.809,22.949,51.270,0
1539618016.048,25.879,46.387,42.480,30.762,27.832,0
1539618016.051,39.551,39.551,48.828,36.621,21.973,0
1539618016.055,41.992,35.645,50.293,31.738,-23.438,0
1539618016.059,16.602,33.691,41.504,22.461,-27.344,0
1539618016.063,11.719,32.227,27.832,19.531,68.848,0
1539618016.067,23.926,32.715,30.273,22.461,51.270,0
1539618016.071,16.602,32.715,30.273,17.090,-9.766,0
1539618016.075,13.672,30.273,30.273,18.555,2.930,0
1539618016.079,17.090,27.832,36.621,22.461,9.277,0
1539618016.083,18.555,28.320,38.574,24.902,-28.320,0
1539618016.087,16.602,28.809,31.738,21.484,-32.227,0
1539618016.091,23.438,29.785,32.715,27.344,7.324,0
1539618016.094,29.785,35.156,37.598,27.344,-7.812,0
1539618016.098,18.066,38.574,27.344,17.578,20.020,0
1539618016.102,15.625,34.668,22.949,21.484,69.336,0
1539618016.106,19.531,33.691,25.879,20.020,55.176,0
1539618016.110,22.949,40.039,24.902,16.113,67.871,0
1539618016.114,28.320,32.227,24.902,16.602,65.918,0
1539618016.118,26.855,29.297,32.227,20.020,89.355,0
1539618016.122,10.742,37.109,34.668,17.090,34.180,0
1539618016.126,7.324,39.062,33.203,20.996,-15.625,0
1539618016.130,13.672,32.715,30.762,27.344,34.180,0
1539618016.133,14.648,32.227,26.855,18.066,96.680,0
1539618016.137,22.949,29.785,25.879,19.531,41.504,0
1539618016.141,32.227,32.715,31.738,24.414,37.109,0
1539618016.145,27.832,37.109,31.250,16.602,58.105,0
1539618016.149,24.902,34.180,26.855,15.625,44.922,0
1539618016.153,26.855,32.715,31.250,20.996,87.402,0
1539618016.157,26.855,35.645,36.133,16.602,47.363,0
1539618016.161,23.926,42.969,33.691,18.066,36.133,0
1539618016.165,19.531,34.668,30.762,26.367,-7.812,0
1539618016.169,28.320,33.203,32.715,29.785,-33.691,0
1539618016.173,38.574,41.016,37.598,25.391,7.324,0
1539618016.176,32.227,45.898,41.016,22.949,-18.066,0
1539618016.180,29.297,47.852,42.480,33.203,-19.043,0
1539618016.184,33.691,45.898,43.945,32.715,1.465,0
1539618016.188,28.809,40.527,40.039,28.809,30.273,0
1539618016.192,34.180,39.551,40.039,34.180,24.414,0
1539618016.196,42.480,45.898,45.898,44.434,17.578,0
1539618016.200,40.039,42.480,44.922,30.273,19.043,0
1539618016.204,42.969,38.086,36.133,20.020,14.648,0
1539618016.208,36.621,43.457,41.016,35.645,34.668,0
1539618016.212,29.785,42.969,42.969,36.133,41.016,0
1539618016.216,32.227,44.434,31.738,33.203,11.230,0
1539618016.219,27.344,46.387,33.203,31.738,-20.996,0
1539618016.223,36.621,43.945,41.504,30.762,-25.391,0
1539618016.227,40.039,41.992,39.551,32.227,-19.531,0
1539618016.231,32.227,40.039,35.645,29.785,19.531,0
1539618016.235,33.203,42.480,38.574,31.738,17.090,0
1539618016.239,42.480,48.340,39.551,33.203,22.461,0
1539618016.243,40.039,44.434,39.551,24.902,19.043,0
1539618016.247,28.809,38.086,43.457,24.414,34.180,0
1539618016.251,34.668,43.457,46.875,25.879,98.633,0
1539618016.255,33.691,47.852,40.039,18.555,103.027,0
1539618016.258,26.855,41.992,35.156,20.020,30.762,0
1539618016.262,23.926,40.527,33.691,24.902,-20.508,0
1539618016.266,26.855,40.527,31.738,17.090,41.992,0
1539618016.270,35.156,40.039,37.598,20.020,56.152,0
1539618016.274,33.203,39.551,40.527,24.414,8.789,0
1539618016.278,29.297,37.109,42.969,24.902,11.230,0
1539618016.282,29.785,36.133,41.504,30.762,-4.883,0
1539618016.286,35.156,40.527,36.621,27.344,22.461,0
1539618016.290,30.762,41.016,38.086,25.391,26.855,0
1539618016.294,23.926,40.039,37.109,26.367,-20.020,0
1539618016.298,34.668,34.180,42.480,35.156,40.527,0
1539618016.301,49.316,35.156,46.875,46.875,82.520,0
1539618016.305,40.039,39.062,33.691,40.527,59.570,0
1539618016.309,34.180,44.434,27.344,30.273,43.457,0
1539618016.313,28.809,45.898,28.320,24.414,31.250,0
1539618016.317,36.133,45.410,26.855,31.738,51.270,0
1539618016.321,43.457,50.293,24.414,36.133,45.410,0
1539618016.325,27.832,48.828,27.832,28.320,22.949,0
1539618016.329,21.484,44.922,37.109,25.391,-14.648,0
1539618016.333,30.273,46.875,42.969,27.344,14.160,0
1539618016.337,32.227,43.457,44.434,23.438,103.516,0
1539618016.341,18.066,40.039,37.109,9.277,116.699,0
1539618016.344,3.418,36.133,30.762,2.930,82.031,0
1539618016.348,6.348,33.203,31.250,9.766,96.191,0
1539618016.352,22.949,30.762,34.180,10.742,69.824,0
1539618016.356,22.949,29.785,39.062,6.348,10.254,0
1539618016.360,12.207,37.598,40.039,14.160,-7.812,0
1539618016.364,12.207,39.551,41.016,27.344,6.348,0
1539618016.368,18.555,43.457,42.480,31.250,40.039,0
1539618016.372,27.832,49.316,42.969,28.320,-13.672,0
1539618016.376,35.156,43.945,36.621,38.086,-57.129,0
1539618016.380,41.992,43.945,34.668,41.504,9.277,0
1539618016.383,48.828,48.340,38.574,34.180,78.613,0
1539618016.387,33.691,47.852,35.645,35.156,28.320,0
1539618016.391,34.180,48.828,39.551,42.480,9.766,0
1539618016.395,49.316,43.457,33.203,43.945,-1.953,0
1539618016.399,41.504,33.691,16.602,35.645,20.996,0
1539618016.403,42.480,36.133,25.879,30.273,39.551,0
1539618016.407,39.551,38.086,43.945,32.227,12.207,0
1539618016.411,25.879,37.598,40.527,31.738,11.719,0
1539618016.415,23.438,40.527,27.344,27.344,35.645,0
1539618016.419,20.508,41.504,23.926,23.438,64.453,0
1539618016.423,27.832,42.480,29.785,15.137,48.828,0
1539618016.426,28.809,45.410,33.691,28.320,62.988,0
1539618016.430,25.391,45.410,32.227,29.785,64.453,0
1539618016.434,34.668,42.969,34.180,16.602,19.531,0
1539618016.438,37.598,39.062,39.551,21.484,21.973,0
1539618016.442,37.109,35.156,36.621,26.855,17.578,0
1539618016.446,28.320,39.062,29.785,29.297,0.488,0
1539618016.450,23.926,37.598,29.297,32.715,11.719,0
1539618016.454,31.250,34.668,32.227,25.391,21.484,0
1539618016.458,33.691,38.086,36.621,19.531,33.691,0
1539618016.462,24.414,39.551,37.598,18.555,39.062,0
1539618016.466,19.531,39.062,33.203,19.531,68.359,0
1539618016.469,27.344,35.156,32.715,24.414,76.172,0
1539618016.473,30.762,36.621,32.715,20.020,67.871,0
1539618016.477,39.551,44.922,37.109,29.785,54.199,0
1539618016.481,41.992,45.410,41.504,39.551,94.238,0
1539618016.485,29.785,42.969,36.133,33.203,49.316,0
1539618016.489,40.039,42.480,38.574,26.855,-23.926,0
1539618016.493,36.133,42.480,37.109,31.250,33.691,0
1539618016.497,29.297,49.316,37.109,29.785,83.984,0
1539618016.501,29.297,49.316,37.109,27.344,91.309,0
1539618016.505,37.109,37.109,37.598,30.762,83.496,0
1539618016.508,47.363,42.480,39.062,32.227,71.289,0
1539618016.512,43.457,50.781,38.086,40.039,68.848,0
1539618016.516,41.504,54.688,39.062,40.039,47.363,0
1539618016.520,42.480,51.758,42.969,37.598,35.156,0
1539618016.524,37.109,49.316,47.852,42.480,15.625,0
1539618016.528,38.086,49.805,41.992,35.156,18.555,0
1539618016.532,39.551,39.062,39.551,33.203,9.766,0
1539618016.536,27.832,37.598,39.062,24.414,-2.441,0
1539618016.540,24.902,43.457,38.574,17.090,3.418,0
1539618016.544,28.809,41.016,36.133,17.090,-11.719,0
1539618016.548,38.086,39.551,38.086,21.973,30.273,0
1539618016.551,40.039,45.898,42.969,27.344,37.109,0
1539618016.555,35.156,50.293,42.480,21.484,30.762,0
1539618016.559,33.203,44.434,41.504,30.762,35.645,0
1539618016.563,33.203,42.969,42.969,33.691,18.555,0
1539618016.567,34.180,43.945,39.062,28.809,28.320,0
1539618016.571,35.156,43.457,40.527,38.086,61.035,0
1539618016.575,33.691,47.852,47.363,41.992,60.547,0
1539618016.579,30.762,42.480,44.922,29.297,10.254,0
1539618016.583,20.508,37.109,38.086,21.973,-0.488,0
1539618016.587,25.879,42.969,43.945,26.367,-28.809,0
1539618016.591,37.598,45.898,47.363,28.320,-2.930,0
1539618016.594,35.156,42.969,41.016,30.273,63.965,0
1539618016.598,25.879,39.551,38.086,24.902,29.785,0
1539618016.602,29.785,40.527,37.109,20.508,-13.184,0
1539618016.606,43.457,45.898,41.016,35.645,-19.043,0
1539618016.610,43.457,42.480,40.527,35.156,-20.508,0
1539618016.614,33.203,41.016,36.621,24.414,-7.324,0
1539618016.618,35.645,47.363,39.062,23.926,41.016,0
1539618016.622,44.922,45.898,40.527,28.320,68.848,0
1539618016.626,40.039,41.504,41.016,22.949,107.910,0
1539618016.630,30.762,43.457,41.016,23.926,99.609,0
1539618016.633,29.297,44.922,41.016,27.832,70.801,0
1539618016.637,29.785,37.598,40.039,22.461,63.477,0
