timestamps,TP9,AF7,AF8,TP10,Right AUX,Marker0
1539630453.617,33.203,-934.082,3.906,39.062,20.020,1
1539630453.621,24.414,-728.516,-0.488,35.645,107.422,0
1539630453.625,19.531,-708.008,-10.254,31.738,102.539,0
1539630453.629,23.926,-916.016,-1.953,29.785,23.438,0
1539630453.633,19.043,-926.758,17.578,34.668,11.719,0
1539630453.637,17.578,-921.875,21.484,40.527,41.504,0
1539630453.641,20.020,-895.508,11.230,40.527,122.070,0
1539630453.645,22.461,-922.363,-11.230,35.156,105.957,0
1539630453.649,22.461,-919.922,-7.324,34.668,75.195,0
1539630453.653,21.484,-678.711,0.000,36.621,66.406,0
1539630453.657,25.879,-694.824,-9.766,40.527,52.734,0
1539630453.660,29.785,-800.293,-8.301,41.504,72.754,0
1539630453.664,27.832,-688.477,0.000,35.645,72.266,0
1539630453.668,26.367,-637.207,8.789,35.156,21.973,0
1539630453.672,28.320,-813.965,7.324,38.086,-40.039,0
1539630453.676,28.320,-849.609,24.902,36.621,-1.465,0
1539630453.680,22.461,-671.875,61.523,30.762,48.340,0
1539630453.684,20.020,-747.070,81.543,33.203,54.199,0
1539630453.688,23.438,-880.371,96.191,38.574,65.430,0
1539630453.692,27.344,-963.867,104.980,37.109,17.090,0
1539630453.696,25.879,-810.059,116.211,35.645,19.531,0
1539630453.699,23.926,-587.402,109.863,35.645,72.266,0
1539630453.703,23.926,-755.859,97.168,34.668,33.203,0
1539630453.707,22.461,-917.480,90.820,29.297,-49.316,0
1539630453.711,21.484,-791.504,93.750,31.250,-34.668,0
1539630453.715,18.555,-748.047,87.402,29.297,-6.836,0
1539630453.719,18.555,-806.152,83.008,32.227,39.062,0
1539630453.723,21.484,-819.336,88.867,37.598,43.457,0
1539630453.727,27.832,-732.422,89.844,30.273,52.734,0
1539630453.731,26.855,-849.121,79.590,30.273,82.031,0
1539630453.735,25.879,-998.047,68.359,34.668,4.395,0
1539630453.739,30.273,-919.434,77.637,28.320,-18.555,0
1539630453.742,24.902,-786.621,86.914,26.367,54.199,0
1539630453.746,28.320,-895.508,70.801,35.156,-0.488,0
1539630453.750,30.273,-944.824,86.914,34.180,-13.672,0
1539630453.754,23.926,-775.391,102.051,29.297,62.988,0
1539630453.758,21.973,-740.234,97.656,28.320,33.203,0
1539630453.762,20.996,-851.562,88.379,23.926,32.227,0
1539630453.766,26.367,-921.875,69.824,22.949,56.152,0
1539630453.770,24.414,-837.891,54.688,19.531,38.086,0
1539630453.774,18.066,-874.512,32.227,14.648,-14.648,0
1539630453.778,22.461,-961.914,17.578,14.648,-3.418,0
1539630453.782,20.996,-973.633,13.184,13.184,10.742,0
1539630453.785,14.648,-970.703,16.113,12.207,-21.973,0
1539630453.789,16.602,-886.230,11.719,13.184,36.621,0
1539630453.793,19.043,-911.133,4.395,15.137,64.941,0
1539630453.797,26.855,-946.289,11.719,19.043,66.895,0
1539630453.801,32.227,-889.160,15.137,20.020,87.402,0
1539630453.805,29.297,-959.961,10.254,20.996,61.523,0
1539630453.809,30.762,-975.098,18.066,23.926,0.488,0
1539630453.813,31.250,-974.609,15.625,22.949,-5.371,0
1539630453.817,30.273,-927.246,0.488,18.066,52.734,0
1539630453.821,29.785,-911.133,-7.812,12.695,33.691,0
1539630453.824,23.926,-968.262,-8.301,15.137,-1.465,0
1539630453.828,19.043,-986.328,3.906,16.602,41.504,0
1539630453.832,20.996,-889.648,19.531,14.648,103.027,0
1539630453.836,19.043,-860.840,22.949,15.625,116.211,0
1539630453.840,16.113,-971.680,22.461,15.625,53.223,0
1539630453.844,19.531,-976.562,38.574,13.672,29.297,0
1539630453.848,21.973,-934.570,52.734,20.508,35.156,0
1539630453.852,27.344,-934.570,61.523,21.484,41.504,0
1539630453.856,34.668,-964.844,65.430,17.090,49.316,0
1539630453.860,34.668,-977.539,65.430,20.508,31.250,0
1539630453.864,32.227,-944.824,73.242,21.973,77.148,0
1539630453.867,27.344,-922.363,62.012,23.438,99.121,0
1539630453.871,27.832,-971.680,42.969,24.414,62.988,0
1539630453.875,30.762,-972.656,43.457,20.508,5.859,0
1539630453.879,27.344,-968.750,47.363,20.508,-1.465,0
1539630453.883,26.855,-970.703,35.156,19.531,63.477,0
1539630453.887,23.926,-970.703,25.391,9.766,37.109,0
1539630453.891,12.695,-971.680,36.133,8.301,-17.578,0
1539630453.895,13.672,-969.238,42.969,9.766,-3.906,0
1539630453.899,14.160,-972.168,38.086,10.254,-29.297,0
1539630453.903,10.254,-965.820,38.574,12.207,-3.418,0
1539630453.907,9.277,-898.438,45.898,12.207,74.707,0
1539630453.910,12.695,-889.648,40.039,16.113,41.016,0
1539630453.914,19.531,-964.355,32.227,20.020,14.160,0
1539630453.918,20.996,-974.121,26.367,20.996,43.945,0
1539630453.922,25.391,-968.262,20.508,24.902,38.086,0
1539630453.926,30.273,-971.191,19.043,28.809,-25.879,0
1539630453.930,30.273,-966.797,11.719,23.438,-15.625,0
1539630453.934,25.879,-981.445,14.160,17.090,30.273,0
1539630453.938,26.367,-896.484,26.367,19.043,34.180,0
1539630453.942,31.250,-847.168,27.344,19.531,76.660,0
1539630453.946,30.273,-983.398,26.367,19.043,28.320,0
1539630453.949,29.297,-879.395,37.598,21.973,58.105,0
1539630453.953,26.367,-803.223,38.574,24.902,82.520,0
1539630453.957,24.902,-958.496,38.086,25.391,12.695,0
1539630453.961,26.367,-956.543,46.387,24.902,42.480,0
1539630453.965,24.902,-949.707,45.898,24.902,45.410,0
1539630453.969,25.879,-973.633,52.246,25.391,26.367,0
1539630453.973,28.320,-951.172,41.504,22.949,35.156,0
1539630453.977,30.762,-971.191,34.668,17.578,47.363,0
1539630453.981,33.203,-953.125,56.152,20.020,27.344,0
1539630453.985,27.832,-839.844,52.734,22.949,15.625,0
1539630453.989,22.949,-885.742,41.992,21.484,57.129,0
1539630453.992,21.973,-941.895,58.105,16.113,67.871,0
1539630453.996,19.531,-749.023,94.727,13.184,139.648,0
1539630454.000,17.090,-749.023,117.188,14.648,97.168,0
1539630454.004,18.066,-925.781,130.859,12.207,38.086,0
1539630454.008,16.113,-947.266,135.254,13.184,41.992,0
1539630454.012,16.602,-953.125,139.160,17.090,46.387,0
1539630454.016,23.438,-971.680,158.691,20.020,53.711,0
1539630454.020,24.414,-975.586,158.203,18.555,-5.859,0
1539630454.024,17.578,-946.289,148.438,19.043,29.297,0
1539630454.028,18.066,-849.609,137.695,26.367,70.801,0
1539630454.032,27.344,-885.254,110.352,25.391,43.457,0
1539630454.035,33.203,-973.633,91.309,25.879,35.645,0
1539630454.039,29.785,-952.637,100.098,24.414,24.414,0
1539630454.043,23.926,-876.953,106.445,21.484,46.387,0
1539630454.047,25.879,-906.738,95.703,24.414,42.480,0
1539630454.051,29.785,-944.336,97.168,25.879,41.992,0
1539630454.055,31.738,-899.414,94.238,24.414,67.383,0
1539630454.059,31.250,-959.473,84.473,22.461,18.555,0
1539630454.063,25.879,-977.051,81.055,21.484,48.828,0
1539630454.067,24.902,-963.379,77.148,20.020,72.266,0
1539630454.071,28.320,-956.055,80.566,18.066,36.133,0
1539630454.074,32.715,-893.555,80.078,25.391,22.461,0
1539630454.078,33.203,-908.203,74.219,30.762,54.199,0
1539630454.082,30.273,-982.422,64.453,22.461,21.973,0
1539630454.086,24.414,-931.152,61.523,18.066,8.301,0
1539630454.090,20.020,-913.086,50.293,16.602,19.531,0
1539630454.094,18.555,-959.961,36.133,16.113,50.781,0
1539630454.098,21.973,-976.074,35.645,20.020,18.555,0
1539630454.102,25.879,-952.637,43.457,21.484,10.254,0
1539630454.106,27.344,-953.613,41.992,23.438,67.871,0
1539630454.110,30.762,-976.074,31.738,20.020,20.020,0
1539630454.114,28.320,-963.867,36.133,17.090,16.113,0
1539630454.117,19.043,-880.371,40.039,18.066,58.594,0
1539630454.121,21.484,-854.980,28.320,21.484,72.266,0
1539630454.125,25.879,-943.848,22.461,24.902,99.609,0
1539630454.129,27.832,-961.914,24.902,24.902,32.715,0
1539630454.133,28.809,-939.453,20.508,26.855,-20.020,0
1539630454.137,27.344,-948.242,19.043,27.344,16.113,0
1539630454.141,24.902,-969.238,23.926,22.949,50.293,0
1539630454.145,21.484,-958.984,25.391,18.555,24.902,0
1539630454.149,23.926,-918.457,22.949,20.996,43.457,0
1539630454.153,26.367,-948.730,13.672,20.996,59.082,0
1539630454.157,27.832,-978.027,11.719,16.113,28.320,0
1539630454.160,29.785,-968.750,23.438,17.090,21.484,0
1539630454.164,28.320,-968.262,30.762,19.531,-16.113,0
1539630454.168,25.391,-976.562,41.016,20.508,-20.996,0
1539630454.172,23.438,-950.195,50.293,20.020,87.402,0
1539630454.176,22.949,-876.465,54.199,17.090,96.680,0
1539630454.180,14.160,-899.414,52.734,19.531,41.992,0
1539630454.184,9.277,-961.914,30.762,18.066,1.465,0
1539630454.188,11.230,-972.168,26.367,12.695,19.043,0
1539630454.192,15.137,-970.215,32.227,16.602,15.625,0
1539630454.196,17.090,-959.961,29.785,17.578,37.598,0
1539630454.199,15.625,-963.867,27.344,19.043,55.664,0
1539630454.203,16.602,-973.145,31.250,18.555,13.184,0
1539630454.207,19.531,-970.703,28.320,18.555,29.785,0
1539630454.211,18.555,-967.285,17.090,22.949,66.406,0
1539630454.215,14.160,-981.934,22.461,21.484,46.387,0
1539630454.219,15.137,-921.387,38.574,20.996,81.055,0
1539630454.223,17.090,-898.438,38.086,24.414,43.945,0
1539630454.227,18.066,-963.867,30.273,26.367,-1.465,0
1539630454.231,14.160,-971.680,30.762,23.438,2.441,0
1539630454.235,8.301,-952.148,39.551,23.926,13.184,0
1539630454.239,16.602,-881.348,45.410,22.949,78.125,0
1539630454.242,19.531,-909.180,38.086,17.578,49.316,0
1539630454.246,17.090,-977.539,23.926,19.043,-18.555,0
1539630454.250,21.484,-969.727,24.414,21.973,-12.695,0
1539630454.254,26.367,-969.727,35.156,20.996,-4.395,0
1539630454.258,26.367,-971.191,25.391,18.066,-12.207,0
1539630454.262,22.461,-970.703,20.996,16.602,27.344,0
1539630454.266,25.391,-972.168,22.949,18.555,5.859,0
1539630454.270,24.902,-965.332,19.531,25.879,-20.508,0
1539630454.274,26.855,-981.445,35.156,29.785,6.836,0
1539630454.278,20.996,-935.059,39.551,23.438,53.711,0
1539630454.282,12.695,-839.355,23.926,20.508,106.934,0
1539630454.285,15.137,-872.070,8.301,21.973,56.152,0
1539630454.289,15.137,-942.871,9.766,27.832,91.797,0
1539630454.293,15.625,-974.609,11.719,29.297,91.309,0
1539630454.297,19.531,-969.238,30.273,30.762,77.637,0
1539630454.301,18.555,-950.195,31.250,28.320,93.750,0
1539630454.305,14.648,-974.609,12.695,19.531,20.996,0
1539630454.309,10.742,-927.734,41.992,19.531,44.922,0
1539630454.313,9.277,-826.660,53.711,25.391,85.449,0
1539630454.317,16.113,-911.621,27.832,27.344,0.000,0
1539630454.321,16.602,-949.707,38.086,22.949,31.250,0
1539630454.324,12.207,-925.781,52.246,19.043,69.824,0
1539630454.328,16.602,-950.195,52.246,21.484,31.250,0
1539630454.332,20.996,-937.500,51.758,25.391,21.973,0
1539630454.336,26.855,-969.727,54.688,26.367,-32.715,0
1539630454.340,28.320,-972.656,63.965,23.438,-63.965,0
1539630454.344,24.414,-968.750,69.336,20.508,-44.922,0
1539630454.348,22.461,-972.168,56.152,23.926,17.090,0
1539630454.352,20.508,-971.680,55.664,23.926,48.340,0
1539630454.356,20.508,-953.613,62.500,20.508,14.648,0
1539630454.360,15.137,-960.938,43.457,15.137,-39.062,0
1539630454.364,15.625,-973.145,25.879,13.184,15.625,0
1539630454.367,18.066,-970.215,17.578,15.625,54.199,0
1539630454.371,20.020,-952.148,3.906,15.137,17.578,0
1539630454.375,21.973,-926.758,-8.301,17.578,37.109,0
1539630454.379,21.484,-956.055,3.906,18.555,73.730,0
1539630454.383,21.484,-975.586,3.906,19.531,6.348,0
1539630454.387,24.902,-969.238,2.441,23.438,4.883,0
1539630454.391,27.832,-968.750,6.836,23.438,6.836,0
1539630454.395,21.973,-976.074,-6.348,20.996,-23.438,0
1539630454.399,18.066,-954.102,-6.348,16.602,61.035,0
1539630454.403,19.043,-902.344,7.324,18.066,58.594,0
1539630454.407,20.508,-935.547,-1.465,23.926,16.113,0
1539630454.410,18.066,-980.957,-22.949,15.137,-10.742,0
1539630454.414,14.648,-956.543,-20.508,13.672,19.043,0
1539630454.418,13.672,-908.691,-5.371,17.578,81.055,0
1539630454.422,21.973,-941.895,-21.484,15.137,58.105,0
1539630454.426,25.879,-976.562,-29.297,19.531,20.508,0
1539630454.430,15.625,-968.750,-2.930,16.602,7.324,0
1539630454.434,12.695,-970.703,20.508,16.602,25.391,0
1539630454.438,18.066,-968.750,25.879,18.066,18.555,0
1539630454.442,24.414,-975.098,29.297,17.090,14.648,0
1539630454.446,20.508,-948.242,34.180,20.996,21.484,0
1539630454.449,20.996,-891.113,25.879,25.391,49.316,0
1539630454.453,27.344,-929.199,18.555,28.809,-1.953,0
1539630454.457,23.438,-977.051,25.879,20.508,-30.762,0
1539630454.461,22.461,-969.238,35.156,18.066,1.953,0
1539630454.465,18.555,-970.703,8.301,14.160,-9.766,0
1539630454.469,11.230,-971.191,-24.414,7.324,21.973,0
1539630454.473,2.930,-971.191,-25.879,1.953,34.668,0
1539630454.477,-7.324,-971.191,-49.316,-15.137,40.039,0
1539630454.481,-24.414,-971.191,-65.430,-31.738,-18.555,0
1539630454.485,-35.156,-970.215,-41.016,-37.598,-42.969,0
1539630454.489,-53.711,-972.656,-32.227,-58.105,-1.465,0
1539630454.492,-85.449,-969.727,-17.090,-91.309,37.598,0
1539630454.496,-94.727,-955.078,11.230,-99.121,84.961,0
1539630454.500,-103.516,-965.820,14.160,-104.492,61.035,0
1539630454.504,-108.398,-975.586,4.395,-112.305,45.898,0
1539630454.508,-105.469,-964.355,3.906,-112.305,59.570,0
1539630454.512,-107.910,-955.078,4.883,-111.328,73.730,0
1539630454.516,-107.910,-974.121,14.648,-108.398,26.367,0
1539630454.520,-107.910,-962.402,31.250,-103.027,53.711,0
1539630454.524,-103.027,-931.152,38.086,-98.145,72.754,0
1539630454.528,-97.168,-959.473,18.066,-88.379,62.012,0
1539630454.532,-100.098,-975.098,-0.977,-84.961,41.016,0
1539630454.535,-98.633,-969.238,13.184,-81.543,-13.672,0
1539630454.539,-96.680,-971.191,18.555,-72.754,-19.043,0
1539630454.543,-93.750,-969.727,13.184,-64.453,23.926,0
1539630454.547,-86.426,-973.145,-6.836,-55.664,55.176,0
1539630454.551,-79.590,-928.711,-20.020,-50.293,58.105,0
1539630454.555,-66.895,-919.434,-15.137,-42.480,83.496,0
1539630454.559,-50.781,-972.656,-25.879,-34.668,64.941,0
1539630454.563,-37.109,-972.168,-31.738,-29.785,21.973,0
1539630454.567,-23.438,-969.727,-41.504,-19.043,23.926,0
1539630454.571,-10.254,-960.449,-56.641,-5.859,46.875,0
1539630454.574,1.953,-963.379,-66.895,1.465,29.785,0
1539630454.578,15.625,-977.539,-69.824,4.883,53.223,0
1539630454.582,19.531,-958.984,-62.988,6.348,116.699,0
1539630454.586,22.949,-940.918,-56.641,12.695,87.891,0
1539630454.590,34.668,-967.773,-56.641,20.996,8.789,0
1539630454.594,42.480,-975.586,-44.922,22.461,-17.578,0
1539630454.598,48.828,-958.984,-45.898,34.668,5.859,0
1539630454.602,62.012,-960.938,-61.523,51.758,16.113,0
1539630454.606,63.477,-972.168,-68.848,56.152,37.109,0
1539630454.610,58.594,-918.945,-66.406,60.059,60.059,0
1539630454.614,69.336,-923.340,-59.570,66.895,77.148,0
1539630454.617,75.684,-974.121,-60.059,74.707,48.340,0
1539630454.621,69.336,-969.727,-57.129,73.730,8.301,0
1539630454.625,69.336,-975.586,-41.992,69.824,56.152,0
1539630454.629,76.172,-927.734,-33.691,72.754,54.199,0
1539630454.633,76.172,-918.457,-52.246,75.195,31.250,0
1539630454.637,74.219,-974.121,-67.383,76.172,39.062,0
1539630454.641,70.312,-964.844,-69.824,73.242,6.348,0
1539630454.645,70.312,-815.918,-69.824,77.148,64.941,0
1539630454.649,71.289,-838.379,-73.242,80.566,105.957,0
1539630454.653,73.730,-966.797,-73.242,81.055,31.250,0
1539630454.657,75.684,-873.047,-62.500,83.008,36.133,0
1539630454.660,70.312,-806.641,-64.453,81.055,76.172,0
1539630454.664,69.824,-907.227,-66.895,81.543,60.547,0
1539630454.668,70.312,-982.910,-56.641,78.613,30.762,0
1539630454.672,70.312,-968.262,-46.875,73.730,22.461,0
1539630454.676,75.195,-950.684,-48.828,73.242,81.055,0
1539630454.680,75.195,-965.820,-60.059,67.383,48.340,0
1539630454.684,71.777,-945.801,-48.828,61.035,-2.930,0
1539630454.688,71.289,-826.172,-42.969,56.152,50.293,0
1539630454.692,68.848,-851.074,-50.781,53.223,56.641,0
1539630454.696,70.312,-969.727,-40.527,58.594,11.230,0
1539630454.699,62.500,-966.797,-24.902,59.082,-37.109,0
1539630454.703,57.129,-814.941,-21.484,56.641,72.754,0
1539630454.707,54.199,-846.680,-20.996,58.594,64.941,0
1539630454.711,50.293,-983.887,-13.672,59.082,-38.574,0
1539630454.715,56.152,-968.750,-8.301,59.082,-24.414,1
1539630454.719,56.641,-967.285,-5.371,56.152,4.883,0
1539630454.723,57.129,-975.098,-2.930,57.617,-23.438,0
1539630454.727,57.129,-942.871,0.488,55.176,-5.859,0
1539630454.731,53.711,-951.172,6.836,50.293,38.574,0
1539630454.735,52.734,-894.531,12.695,53.711,51.270,0
1539630454.739,49.805,-894.043,2.441,53.711,27.344,0
1539630454.742,50.781,-981.445,7.324,45.898,26.367,0
1539630454.746,52.246,-904.785,24.414,42.480,35.156,0
1539630454.750,52.246,-853.027,13.184,43.945,5.371,0
1539630454.754,51.758,-938.965,0.488,46.875,-1.465,0
1539630454.758,52.734,-974.121,-0.977,44.922,-21.484,0
1539630454.762,55.176,-965.332,5.859,44.434,2.441,0
1539630454.766,52.246,-967.773,9.766,49.316,50.781,0
1539630454.770,47.363,-973.633,0.000,46.875,12.695,0
1539630454.774,45.410,-958.008,9.277,43.945,11.230,0
1539630454.778,44.434,-830.566,23.926,46.875,30.762,0
1539630454.782,43.945,-790.039,16.113,46.387,70.801,0
1539630454.785,45.898,-926.758,11.230,45.898,47.852,0
1539630454.789,41.016,-995.605,18.555,43.457,1.953,0
1539630454.793,31.738,-880.859,28.320,40.527,47.363,0
1539630454.797,32.227,-859.863,20.508,38.574,36.621,0
1539630454.801,36.133,-958.984,19.531,40.039,-12.207,0
1539630454.805,34.668,-807.617,31.738,42.480,77.637,0
1539630454.809,34.668,-854.980,26.367,40.039,89.844,0
1539630454.813,39.062,-985.840,22.949,36.621,27.832,0
1539630454.817,38.574,-975.586,25.391,33.691,22.949,0
1539630454.821,36.133,-887.695,36.621,32.227,46.387,0
1539630454.824,37.109,-712.402,38.574,32.227,98.633,0
1539630454.828,35.156,-832.520,35.645,31.738,76.172,0
1539630454.832,27.344,-946.289,44.434,32.227,26.367,0
1539630454.836,20.508,-770.996,59.570,34.668,65.430,0
1539630454.840,24.414,-732.422,62.500,36.133,62.012,0
1539630454.844,29.297,-887.695,55.664,34.180,43.945,0
1539630454.848,30.273,-982.422,58.594,36.133,34.180,0
1539630454.852,30.762,-921.875,72.266,34.180,11.719,0
1539630454.856,30.273,-924.316,72.754,34.668,21.973,0
1539630454.860,25.391,-981.445,64.453,34.180,33.203,0
1539630454.864,19.043,-952.637,68.848,28.320,41.504,0
1539630454.867,21.484,-813.965,66.406,37.109,28.320,0
1539630454.871,26.367,-795.410,56.641,42.480,33.203,0
1539630454.875,26.367,-950.684,62.012,41.016,16.602,0
1539630454.879,29.785,-842.773,75.684,46.387,61.035,0
1539630454.883,29.785,-734.375,73.730,48.828,60.059,0
1539630454.887,25.879,-863.770,61.035,44.922,4.395,0
1539630454.891,28.320,-968.262,58.105,37.598,0.977,0
1539630454.895,25.879,-846.680,74.707,34.180,45.898,0
1539630454.899,22.949,-764.160,79.102,32.715,82.520,0
1539630454.903,25.391,-917.969,53.223,28.320,27.344,0
1539630454.907,23.438,-990.234,46.387,23.438,-33.691,0
1539630454.910,24.902,-933.105,64.941,19.043,-20.996,0
1539630454.914,25.879,-821.777,60.059,20.020,24.902,0
1539630454.918,24.414,-874.023,49.316,19.043,36.133,0
1539630454.922,25.391,-954.102,51.758,17.578,26.855,0
1539630454.926,26.367,-848.145,51.758,21.973,23.438,0
1539630454.930,26.855,-768.066,49.316,22.461,52.734,0
1539630454.934,29.785,-823.242,57.129,23.926,83.496,0
1539630454.938,32.227,-844.727,62.988,20.020,84.473,0
1539630454.942,30.273,-797.363,60.547,15.625,54.688,0
1539630454.946,24.414,-809.082,56.641,20.020,47.852,0
1539630454.949,18.555,-921.387,54.688,20.996,41.992,0
1539630454.953,20.020,-978.516,65.430,19.531,49.805,0
1539630454.957,24.902,-873.535,66.895,21.484,48.340,0
1539630454.961,29.297,-901.855,56.152,25.879,25.391,0
1539630454.965,33.691,-988.770,51.758,26.367,55.664,0
1539630454.969,30.273,-926.758,61.035,27.832,83.496,0
1539630454.973,28.809,-836.914,62.012,30.762,40.039,0
1539630454.977,31.738,-895.996,49.316,31.250,-9.277,0
1539630454.981,33.203,-948.242,48.828,33.691,21.484,0
1539630454.985,33.691,-871.094,53.711,37.109,49.316,0
1539630454.989,32.715,-792.480,63.477,32.715,54.199,0
1539630454.992,29.297,-837.891,65.430,30.273,102.539,0
1539630454.996,28.320,-970.703,58.105,31.738,79.590,0
1539630455.000,27.344,-977.539,63.965,27.832,47.363,0
1539630455.004,26.367,-952.637,76.660,24.902,6.836,0
1539630455.008,24.414,-943.359,72.266,20.996,10.254,0
1539630455.012,24.902,-979.004,70.312,18.555,28.809,0
1539630455.016,27.344,-907.715,87.891,17.090,37.109,0
1539630455.020,30.273,-891.602,79.590,19.531,16.113,0
1539630455.024,28.320,-980.469,76.172,18.066,10.254,0
1539630455.028,24.902,-934.082,83.008,10.742,22.461,0
1539630455.032,25.391,-859.375,81.543,14.160,11.719,0
1539630455.035,27.832,-785.645,79.102,20.508,71.289,0
1539630455.039,32.227,-858.398,75.684,24.414,95.215,0
1539630455.043,32.715,-976.074,74.707,24.902,55.664,0
1539630455.047,27.832,-968.750,77.637,21.973,34.668,0
1539630455.051,28.320,-965.820,78.613,21.973,-7.812,0
1539630455.055,31.250,-976.074,77.148,18.555,-7.324,0
1539630455.059,34.180,-944.824,87.891,15.137,18.066,0
1539630455.063,34.668,-846.191,94.238,19.043,-0.977,0
1539630455.067,35.156,-853.027,85.938,20.020,22.461,0
1539630455.071,34.668,-901.855,83.496,21.484,86.914,0
1539630455.074,28.809,-803.711,84.473,18.555,81.543,0
1539630455.078,28.320,-862.793,79.102,16.113,68.359,0
1539630455.082,30.762,-952.637,82.520,20.996,62.012,0
1539630455.086,33.203,-923.828,85.938,25.879,45.410,0
1539630455.090,36.133,-951.660,82.031,28.320,11.719,0
1539630455.094,37.109,-951.660,87.402,24.414,36.133,0
1539630455.098,38.086,-927.246,83.984,22.461,77.637,0
1539630455.102,34.180,-956.543,78.613,25.879,65.430,0
1539630455.106,28.809,-903.320,87.891,21.484,12.207,0
1539630455.110,25.391,-829.590,96.191,19.043,-14.648,0
1539630455.114,24.414,-883.301,102.539,19.531,44.922,0
1539630455.117,20.020,-936.523,107.422,20.996,40.039,0
1539630455.121,18.066,-846.680,113.770,24.414,5.371,0
1539630455.125,21.484,-799.316,113.770,26.367,27.344,0
1539630455.129,19.531,-917.969,107.422,26.367,14.160,0
1539630455.133,17.578,-913.086,104.004,24.414,36.133,0
1539630455.137,17.090,-887.695,104.004,25.391,72.754,0
1539630455.141,15.137,-978.027,111.816,31.250,35.645,0
1539630455.145,20.020,-973.145,111.816,28.809,50.293,0
1539630455.149,22.949,-955.078,107.422,25.391,43.945,0
1539630455.153,17.090,-860.840,111.816,24.414,2.441,0
1539630455.157,11.719,-880.371,110.840,20.996,-28.320,0
1539630455.160,7.324,-945.312,112.793,16.113,-15.625,0
1539630455.164,1.465,-815.918,119.141,17.090,63.477,0
1539630455.168,7.812,-726.074,117.676,25.391,69.824,0
1539630455.172,15.137,-859.863,109.375,25.391,12.695,0
1539630455.176,17.090,-950.195,102.539,22.461,0.488,0
1539630455.180,27.344,-840.332,104.980,23.926,53.223,0
1539630455.184,34.668,-896.484,102.051,27.832,36.133,0
1539630455.188,38.574,-983.398,96.191,29.297,11.230,0
1539630455.192,45.410,-961.914,105.469,24.414,52.734,0
1539630455.196,46.387,-984.863,117.676,22.461,54.199,0
1539630455.199,48.828,-859.375,115.234,23.438,52.734,0
1539630455.203,53.223,-859.863,104.004,25.879,11.719,0
1539630455.207,50.293,-895.508,97.168,23.926,22.949,0
1539630455.211,41.016,-745.605,93.262,19.531,81.055,0
1539630455.215,36.621,-704.590,88.379,20.996,67.383,0
1539630455.219,32.715,-795.898,83.496,27.344,88.379,0
1539630455.223,27.344,-929.199,81.055,26.367,33.691,0
1539630455.227,24.414,-877.930,83.984,28.809,0.000,0
1539630455.231,23.926,-917.969,80.078,30.762,-13.672,0
1539630455.235,20.996,-988.770,79.590,28.320,49.805,0
1539630455.239,21.973,-932.617,92.773,30.762,109.375,0
1539630455.242,24.414,-786.621,97.656,37.109,44.434,0
1539630455.246,25.391,-768.066,85.449,36.133,41.992,0
1539630455.250,27.832,-933.105,75.195,36.621,60.547,0
1539630455.254,26.367,-979.492,74.707,36.133,23.438,0
1539630455.258,25.879,-835.938,81.055,31.738,14.160,0
1539630455.262,30.273,-832.031,82.520,28.320,21.973,0
1539630455.266,30.762,-934.082,85.449,23.926,0.000,0
1539630455.270,28.809,-799.805,101.562,20.020,39.551,0
1539630455.274,34.180,-705.566,108.887,20.996,90.332,0
1539630455.278,33.203,-883.301,96.191,24.902,24.414,0
1539630455.282,25.391,-964.844,97.656,28.320,-36.133,0
1539630455.285,25.391,-798.340,110.352,31.738,49.316,0
1539630455.289,24.902,-713.379,115.234,33.203,75.684,0
1539630455.293,27.832,-858.398,106.934,33.203,18.066,0
1539630455.297,31.738,-971.191,105.469,29.297,32.715,0
1539630455.301,30.273,-862.305,118.652,29.785,35.645,0
1539630455.305,28.320,-789.551,121.582,29.297,0.977,0
1539630455.309,27.344,-902.832,123.535,23.438,-37.598,0
1539630455.313,28.809,-907.227,127.441,25.391,-7.812,0
1539630455.317,28.809,-752.441,132.812,26.855,63.477,0
1539630455.321,29.297,-727.539,131.348,24.902,54.199,0
1539630455.324,28.320,-891.113,122.070,25.391,52.246,0
1539630455.328,28.320,-983.887,131.836,21.484,61.523,0
1539630455.332,30.762,-809.082,149.902,25.391,74.219,0
1539630455.336,34.668,-762.207,147.461,33.691,58.594,0
1539630455.340,36.621,-904.297,135.742,30.273,81.543,0
1539630455.344,30.762,-831.055,142.090,28.320,117.188,0
1539630455.348,29.297,-711.426,153.320,28.320,93.262,0
1539630455.352,28.320,-777.344,147.461,27.832,90.820,0
1539630455.356,22.461,-955.566,134.766,23.438,54.688,0
1539630455.360,25.391,-938.477,142.578,19.531,17.090,0
1539630455.364,23.926,-790.039,145.020,17.090,54.688,0
1539630455.367,15.625,-870.117,133.301,17.578,25.879,0
1539630455.371,13.672,-983.398,132.812,22.461,-3.418,0
1539630455.375,15.625,-968.262,140.137,19.531,10.742,0
1539630455.379,22.461,-966.797,140.625,20.020,17.578,0
1539630455.383,28.809,-969.238,132.812,24.414,32.227,0
1539630455.387,28.320,-974.609,130.859,22.949,78.125,0
1539630455.391,24.902,-886.719,136.230,22.949,49.805,0
1539630455.395,25.391,-813.477,137.695,23.926,-10.742,0
1539630455.399,31.738,-916.992,141.602,22.949,-26.855,0
1539630455.403,37.598,-954.590,149.902,23.438,-13.672,0
1539630455.407,32.227,-823.242,160.156,23.438,27.832,0
1539630455.410,24.414,-741.699,158.203,23.438,70.801,0
1539630455.414,24.414,-867.676,157.227,23.438,44.434,0
1539630455.418,22.949,-982.422,160.645,24.902,30.273,0
1539630455.422,14.648,-966.797,164.062,19.531,22.949,0
1539630455.426,14.648,-964.844,166.504,15.625,1.465,0
1539630455.430,17.578,-979.004,155.762,15.625,40.039,0
1539630455.434,18.066,-935.059,156.250,14.648,70.801,0
1539630455.438,18.066,-827.148,161.133,23.438,7.324,0
1539630455.442,21.484,-864.746,144.531,25.879,-7.324,0
1539630455.446,24.414,-910.645,137.695,25.879,65.430,0
1539630455.449,22.461,-793.945,147.949,27.832,77.148,0
1539630455.453,25.879,-679.199,147.949,31.250,91.797,0
1539630455.457,29.297,-782.715,131.348,35.645,92.773,0
1539630455.461,34.668,-945.801,122.559,35.156,21.484,0
1539630455.465,30.762,-942.383,130.859,36.133,42.969,0
1539630455.469,22.949,-966.309,143.555,33.691,25.879,0
1539630455.473,27.832,-973.145,149.414,28.809,-2.441,0
1539630455.477,29.297,-971.191,151.855,28.809,52.246,0
1539630455.481,29.785,-928.223,154.297,30.762,6.836,0
1539630455.485,30.762,-918.457,139.160,34.180,-14.648,0
1539630455.489,29.297,-949.707,142.090,34.668,32.715,0
1539630455.492,32.715,-927.734,150.879,28.809,5.371,0
1539630455.496,28.809,-854.980,151.367,22.949,-22.461,0
1539630455.500,26.367,-786.621,145.996,21.484,31.250,0
1539630455.504,30.273,-863.281,144.043,27.832,44.434,0
1539630455.508,31.250,-866.211,145.996,29.297,52.734,0
1539630455.512,33.691,-902.344,150.391,27.344,17.090,0
1539630455.516,40.039,-980.469,166.504,35.156,-3.418,0
1539630455.520,40.039,-963.379,165.039,37.598,37.109,0
1539630455.524,34.668,-958.008,177.246,30.273,16.602,0
1539630455.528,33.203,-820.801,196.289,26.855,12.207,0
1539630455.532,31.250,-763.672,187.500,28.809,69.336,0
1539630455.535,28.809,-884.766,187.012,32.227,60.059,0
1539630455.539,36.133,-834.961,190.430,34.180,61.035,0
1539630455.543,34.668,-834.961,175.293,25.879,39.062,0
1539630455.547,24.414,-924.316,166.016,19.043,0.977,0
1539630455.551,30.273,-928.711,163.574,20.020,24.902,0
1539630455.555,32.227,-826.660,157.715,17.090,53.223,0
1539630455.559,29.785,-897.461,149.414,15.137,47.363,0
1539630455.563,30.762,-978.027,148.438,17.090,22.949,0
1539630455.567,27.832,-980.957,153.809,16.113,8.789,0
1539630455.571,19.531,-904.297,162.598,11.230,15.137,0
1539630455.574,17.578,-733.887,160.156,11.719,58.594,0
1539630455.578,20.020,-863.281,149.902,13.184,21.484,0
1539630455.582,15.137,-912.598,156.250,13.672,37.109,0
1539630455.586,13.672,-799.316,156.738,16.602,27.344,0
1539630455.590,10.742,-764.648,148.438,13.672,35.645,0
1539630455.594,7.324,-843.750,139.648,10.742,47.852,0
1539630455.598,9.766,-980.469,127.930,7.812,8.301,0
1539630455.602,10.742,-962.891,129.395,5.859,5.859,0
1539630455.606,15.137,-960.449,133.301,10.742,30.762,0
1539630455.610,19.043,-973.633,127.441,9.277,52.246,0
1539630455.614,20.020,-961.426,142.578,9.766,0.000,0
1539630455.617,20.020,-815.918,161.133,18.066,24.902,0
1539630455.621,25.391,-766.113,147.461,20.996,50.293,0
1539630455.625,30.273,-941.406,125.000,20.508,27.832,0
1539630455.629,31.738,-953.613,118.652,21.973,-14.160,0
1539630455.633,30.273,-789.551,119.629,22.461,23.926,0
1539630455.637,25.391,-802.246,105.957,22.461,72.754,0
1539630455.641,25.879,-964.844,90.820,26.855,19.531,0
1539630455.645,22.461,-963.867,86.914,28.320,-2.441,0
1539630455.649,16.602,-908.691,79.102,22.949,3.418,0
1539630455.653,18.066,-937.988,55.176,22.461,4.883,0
1539630455.657,17.090,-989.746,45.410,21.973,33.691,0
1539630455.660,19.531,-909.668,63.965,24.414,59.082,0
1539630455.664,22.949,-807.129,65.430,32.715,14.648,0
1539630455.668,21.973,-897.949,71.777,34.668,-5.859,0
1539630455.672,24.414,-942.383,87.402,35.645,16.113,0
1539630455.676,23.926,-830.566,100.098,34.180,16.113,0
1539630455.680,20.508,-755.859,117.676,34.180,39.062,0
1539630455.684,22.461,-862.793,127.930,39.062,20.020,0
1539630455.688,23.438,-879.395,135.742,37.109,29.297,0
1539630455.692,19.043,-793.945,129.395,29.297,24.414,0
1539630455.696,19.043,-839.355,120.605,24.902,0.977,0
1539630455.699,19.531,-919.922,122.559,29.297,-5.859,0
1539630455.703,20.996,-994.141,129.883,29.297,15.625,0
1539630455.707,22.461,-884.766,143.066,25.391,70.312,0
1539630455.711,25.391,-756.348,144.043,26.367,82.520,0
1539630455.715,32.227,-918.457,132.812,26.367,56.641,0
1539630455.719,27.832,-935.059,130.371,23.926,31.250,0
1539630455.723,31.738,-730.957,118.164,23.438,70.801,0
1539630455.727,39.551,-786.621,106.934,24.902,58.105,0
1539630455.731,41.504,-950.195,118.164,25.391,5.859,0
1539630455.735,40.527,-917.480,132.812,23.438,-22.949,0
1539630455.739,33.691,-833.984,140.625,20.508,-16.602,0
1539630455.742,34.180,-865.723,143.555,22.461,27.344,0
1539630455.746,37.598,-965.820,152.344,30.273,31.250,0
1539630455.750,40.039,-991.211,170.410,34.180,17.090,0
1539630455.754,38.574,-879.395,180.176,35.156,27.832,0
1539630455.758,34.668,-840.332,172.852,36.133,88.379,0
1539630455.762,35.156,-989.746,165.527,33.691,80.566,0
1539630455.766,32.227,-894.043,183.594,36.133,28.809,0
1539630455.770,26.367,-747.559,189.453,35.156,30.273,0
1539630455.774,23.926,-882.324,178.711,37.109,40.039,0
1539630455.778,24.902,-917.969,172.852,41.992,37.598,0
1539630455.782,29.785,-778.320,169.434,41.992,23.926,0
1539630455.785,34.668,-704.590,172.852,43.945,73.242,0
1539630455.789,35.645,-769.043,175.781,38.574,97.168,0
1539630455.793,35.156,-920.898,181.641,34.668,63.965,0
1539630455.797,38.574,-975.586,189.941,37.598,-9.277,0
1539630455.801,34.668,-944.336,198.242,37.598,-43.457,0
1539630455.805,27.832,-967.285,189.453,26.367,-5.371,0
1539630455.809,23.926,-908.203,182.617,16.602,48.828,0
1539630455.813,21.484,-729.004,184.570,20.996,60.547,0
1539630455.817,19.531,-776.855,172.363,25.391,25.391,0
1539630455.821,21.484,-861.816,153.320,28.320,71.289,0
1539630455.824,27.344,-736.328,142.090,31.738,97.168,0
1539630455.828,29.297,-763.184,127.930,28.809,4.883,0
1539630455.832,24.902,-939.453,110.840,27.344,-25.391,0
1539630455.836,22.949,-916.504,98.145,28.320,47.852,0
1539630455.840,24.902,-915.039,82.031,25.391,20.996,0
1539630455.844,27.344,-969.727,84.961,25.391,-9.277,0
1539630455.848,26.367,-934.570,85.449,24.902,23.438,0
1539630455.852,21.484,-973.633,72.754,21.973,32.715,0
1539630455.856,20.020,-940.430,90.332,23.438,12.695,0
1539630455.860,22.949,-745.117,121.582,25.879,33.203,0
1539630455.864,24.414,-753.418,133.789,27.832,83.984,0
1539630455.867,25.391,-827.148,137.695,29.785,46.875,0
1539630455.871,25.879,-691.406,146.973,32.227,41.504,0
1539630455.875,22.461,-721.680,151.855,36.133,-5.371,0
1539630455.879,23.438,-807.617,165.039,38.086,12.695,0
1539630455.883,27.344,-777.344,172.363,37.598,42.969,0
1539630455.887,22.461,-831.055,163.086,27.832,45.410,0
1539630455.891,19.043,-940.430,159.180,22.461,48.340,0
1539630455.895,17.090,-959.961,159.668,20.996,9.277,0
1539630455.899,14.648,-840.820,159.668,17.578,24.414,0
1539630455.903,18.066,-655.762,150.879,19.043,64.453,0
1539630455.907,22.461,-693.848,124.023,16.602,59.570,0
1539630455.910,27.832,-941.406,91.797,19.043,33.691,0
1539630455.914,28.320,-905.762,70.801,24.414,42.480,0
1539630455.918,30.273,-724.121,47.363,28.320,20.020,0
1539630455.922,34.668,-811.035,38.574,33.691,25.879,0
1539630455.926,34.668,-898.926,30.273,32.227,32.715,0
1539630455.930,29.297,-788.574,12.695,30.762,21.484,0
1539630455.934,26.855,-892.090,-29.785,31.738,-0.977,0
1539630455.938,32.227,-986.816,-80.078,31.250,13.184,0
1539630455.942,33.691,-960.938,-83.984,26.367,24.902,0
1539630455.946,35.156,-963.867,-72.266,27.344,8.301,0
1539630455.949,42.480,-930.176,-98.145,33.203,13.672,0
1539630455.953,40.527,-922.363,-130.371,33.203,-35.156,0
1539630455.957,35.156,-942.383,-144.531,32.227,-66.895,0
1539630455.961,32.227,-816.895,-145.508,32.715,-3.906,0
1539630455.965,32.715,-728.027,-153.809,34.180,36.133,0
1539630455.969,35.156,-850.098,-166.992,34.668,12.207,0
1539630455.973,31.738,-841.797,-158.203,31.250,32.715,0
1539630455.977,31.250,-746.094,-149.414,26.367,35.645,0
1539630455.981,32.715,-889.160,-156.250,30.762,19.043,0
1539630455.985,35.645,-989.258,-159.180,31.738,21.973,0
1539630455.989,35.156,-933.105,-155.762,26.855,29.297,0
1539630455.992,34.668,-776.367,-147.949,31.738,20.508,0
1539630455.996,35.156,-750.977,-171.387,34.180,22.461,0
1539630456.000,29.785,-813.477,-204.102,32.227,79.590,0
1539630456.004,24.902,-825.684,-216.797,34.180,79.590,0
1539630456.008,20.508,-798.340,-217.773,36.621,36.621,0
1539630456.012,18.555,-835.938,-217.285,32.227,12.695,0
1539630456.016,18.555,-854.492,-215.820,32.715,68.848,0
1539630456.020,15.625,-702.637,-208.984,31.250,90.820,0
1539630456.024,16.602,-720.703,-187.012,31.250,36.621,0
1539630456.028,19.531,-864.746,-193.359,34.668,61.035,0
1539630456.032,20.508,-995.117,-214.355,30.273,24.902,0
1539630456.035,19.531,-758.789,-190.430,28.320,116.211,0
1539630456.039,22.461,-566.895,-184.570,28.809,149.414,0
1539630456.043,22.949,-812.988,-203.613,23.926,41.016,0
1539630456.047,23.438,-907.227,-210.938,21.973,21.484,0
1539630456.051,20.508,-768.555,-211.426,22.461,16.113,0
1539630456.055,20.508,-682.129,-227.539,22.461,74.219,0
1539630456.059,25.391,-816.895,-234.375,25.879,59.082,0
1539630456.063,23.926,-984.375,-228.516,28.320,12.207,0
1539630456.067,20.508,-977.539,-230.957,27.344,50.781,0
1539630456.071,19.531,-869.629,-246.094,22.461,77.148,0
1539630456.074,20.508,-893.555,-271.484,21.484,73.730,0
1539630456.078,15.625,-964.844,-269.531,15.137,62.012,0
1539630456.082,6.348,-800.293,-266.602,8.301,61.523,0
1539630456.086,4.395,-724.121,-285.156,17.090,70.312,0
1539630456.090,7.812,-916.504,-311.035,17.578,10.742,0
1539630456.094,9.766,-907.227,-319.336,16.602,19.043,1
1539630456.098,14.160,-700.195,-324.707,20.020,91.309,0
1539630456.102,19.043,-804.199,-345.703,25.879,41.016,0
1539630456.106,21.484,-931.152,-361.816,32.715,16.602,0
1539630456.110,18.066,-798.828,-371.582,29.785,69.336,0
1539630456.114,16.602,-778.320,-378.906,28.809,27.344,0
1539630456.117,19.043,-897.949,-362.793,30.762,-1.953,0
1539630456.121,21.484,-969.727,-351.562,29.785,11.230,0
1539630456.125,19.043,-973.145,-355.957,28.320,-10.742,0
1539630456.129,19.531,-963.867,-340.820,23.438,10.254,0
1539630456.133,24.414,-950.195,-333.496,21.484,73.730,0
1539630456.137,25.391,-968.262,-343.750,18.555,111.816,0
1539630456.141,28.809,-903.809,-333.984,15.625,18.555,0
1539630456.145,30.273,-796.387,-335.938,20.020,-33.691,0
1539630456.149,33.203,-884.277,-352.539,27.344,-29.785,0
1539630456.153,34.668,-918.945,-357.422,26.855,-17.090,0
1539630456.157,34.668,-775.879,-366.211,21.484,36.133,0
1539630456.160,31.738,-763.184,-394.531,19.531,23.438,0
1539630456.164,30.762,-865.723,-402.832,22.461,28.320,0
1539630456.168,31.738,-956.055,-398.926,20.508,42.969,0
1539630456.172,27.832,-966.309,-389.648,21.484,44.434,0
1539630456.176,27.832,-885.742,-374.512,22.949,53.711,0
1539630456.180,31.250,-940.430,-374.512,19.531,38.574,0
1539630456.184,30.273,-938.477,-355.957,20.020,63.477,0
1539630456.188,25.879,-743.652,-339.844,23.438,39.551,0
1539630456.192,20.996,-765.625,-341.309,27.832,25.879,0
1539630456.196,14.648,-949.707,-337.402,29.785,-12.207,0
1539630456.199,10.254,-889.160,-329.102,29.785,-31.738,0
1539630456.203,11.230,-669.434,-324.707,30.762,65.430,0
1539630456.207,16.113,-729.004,-332.031,30.273,95.703,0
1539630456.211,21.484,-807.617,-327.637,26.855,88.867,0
1539630456.215,20.020,-820.312,-312.012,27.832,129.883,0
1539630456.219,23.926,-849.121,-289.062,30.273,96.680,0
1539630456.223,31.738,-858.398,-276.367,28.320,29.785,0
1539630456.227,32.715,-979.980,-253.418,25.391,14.648,0
1539630456.231,25.391,-869.141,-218.262,21.484,1.953,0
1539630456.235,20.996,-708.008,-210.938,26.367,23.438,0
1539630456.239,20.996,-822.266,-206.543,32.715,71.777,0
1539630456.242,20.020,-866.699,-186.035,26.855,36.133,0
1539630456.246,18.066,-742.188,-166.504,23.926,-10.254,0
1539630456.250,17.578,-683.594,-156.250,23.438,33.691,0
1539630456.254,19.531,-770.508,-146.973,19.531,38.574,0
1539630456.258,20.020,-809.570,-145.996,20.020,10.254,0
1539630456.262,23.438,-845.703,-151.367,22.949,55.664,0
1539630456.266,26.367,-920.410,-142.578,23.926,43.945,0
1539630456.270,28.320,-937.988,-141.602,26.855,21.484,0
1539630456.274,30.762,-927.734,-136.230,21.973,42.969,0
1539630456.278,26.367,-752.441,-126.953,20.020,75.195,0
1539630456.282,24.414,-692.383,-131.348,21.484,84.961,0
1539630456.285,25.879,-787.598,-134.766,20.020,74.707,0
1539630456.289,24.414,-684.082,-137.695,22.461,78.613,0
1539630456.293,23.438,-651.367,-142.090,25.879,101.562,0
1539630456.297,28.320,-827.637,-141.602,30.762,99.609,0
1539630456.301,29.785,-876.465,-139.160,31.250,19.531,0
1539630456.305,29.785,-733.887,-140.625,27.344,24.414,0
1539630456.309,31.250,-792.480,-141.602,25.879,83.496,0
1539630456.313,30.762,-944.824,-136.719,26.855,77.637,0
1539630456.317,21.484,-964.844,-122.559,23.926,54.688,0
1539630456.321,12.207,-889.160,-97.168,21.973,-18.555,0
1539630456.324,9.766,-681.641,-82.520,20.508,10.254,0
1539630456.328,9.766,-758.301,-78.613,17.090,48.340,0
1539630456.332,15.137,-837.402,-56.152,17.090,17.090,0
1539630456.336,21.484,-637.207,-30.273,23.926,57.617,0
1539630456.340,24.414,-633.301,-19.043,29.785,26.367,0
1539630456.344,26.367,-686.523,7.812,33.203,81.055,0
1539630456.348,28.809,-639.648,33.691,33.203,119.141,0
1539630456.352,28.320,-713.379,40.527,24.902,32.227,0
1539630456.356,24.902,-916.504,48.340,22.949,-3.418,0
1539630456.360,23.438,-983.887,58.594,18.555,-16.113,0
1539630456.364,18.555,-919.434,67.871,9.277,-19.531,0
1539630456.367,14.648,-702.637,75.195,14.648,24.414,0
1539630456.371,13.672,-674.316,55.664,17.578,32.715,0
1539630456.375,14.160,-860.840,32.715,16.113,-4.395,0
1539630456.379,19.043,-792.969,35.645,24.414,10.254,0
1539630456.383,21.484,-639.160,22.949,31.250,42.480,0
1539630456.387,23.926,-730.469,-11.719,31.738,46.875,0
1539630456.391,23.926,-851.074,-41.992,30.273,41.016,0
1539630456.395,22.949,-746.582,-53.223,29.297,41.992,0
1539630456.399,23.926,-716.797,-64.453,31.250,25.879,0
1539630456.403,26.367,-894.043,-85.449,32.227,29.297,0
1539630456.407,28.320,-932.617,-99.121,29.785,83.496,0
1539630456.410,30.273,-810.059,-125.000,27.344,145.508,0
1539630456.414,29.297,-882.812,-164.551,28.809,46.875,0
1539630456.418,28.320,-953.125,-196.777,32.715,-18.066,0
1539630456.422,28.809,-940.430,-227.051,28.320,95.703,0
1539630456.426,19.043,-827.148,-254.395,20.020,83.496,0
1539630456.430,13.672,-706.543,-286.621,19.531,61.035,0
1539630456.434,18.066,-795.410,-304.688,19.531,84.473,0
1539630456.438,16.113,-912.109,-313.477,18.555,8.301,0
1539630456.442,17.578,-843.750,-321.777,19.531,-36.621,0
1539630456.446,21.973,-784.668,-331.543,19.043,24.414,0
1539630456.449,21.973,-913.574,-354.492,19.531,42.480,0
1539630456.453,17.578,-962.891,-359.375,20.996,32.227,0
1539630456.457,22.949,-829.590,-348.633,18.066,24.902,0
1539630456.461,30.762,-834.473,-352.539,18.555,-30.273,0
1539630456.465,30.273,-964.844,-359.863,20.020,-29.785,0
1539630456.469,26.367,-969.238,-336.914,18.066,44.922,0
1539630456.473,26.367,-803.711,-316.895,13.184,27.832,0
1539630456.477,22.949,-792.480,-327.637,6.836,17.578,0
1539630456.481,15.137,-851.562,-324.219,6.836,72.266,0
1539630456.485,14.648,-746.582,-326.660,9.766,68.848,0
1539630456.489,12.207,-782.227,-353.027,11.719,24.902,0
1539630456.492,9.277,-867.188,-366.211,12.695,32.227,0
1539630456.496,11.719,-968.262,-367.676,15.625,20.508,0
1539630456.500,13.184,-968.750,-346.191,22.461,51.270,0
1539630456.504,15.625,-812.988,-329.102,21.973,62.500,0
1539630456.508,21.973,-836.426,-354.492,20.508,26.855,0
1539630456.512,29.297,-983.887,-357.422,24.414,16.602,0
1539630456.516,27.344,-843.262,-320.312,25.391,19.531,0
1539630456.520,26.367,-641.113,-318.848,29.785,61.523,0
1539630456.524,26.367,-778.809,-344.238,27.832,46.875,0
1539630456.528,28.320,-990.723,-354.980,21.973,-8.789,0
1539630456.532,28.320,-761.719,-343.750,25.391,89.355,0
1539630456.535,28.809,-542.480,-350.098,32.227,168.457,0
1539630456.539,36.133,-757.812,-366.211,35.156,45.410,0
1539630456.543,41.992,-978.027,-374.512,33.691,-24.414,0
1539630456.547,44.434,-975.098,-370.117,31.250,-0.977,0
1539630456.551,39.062,-870.117,-358.398,27.832,0.488,0
1539630456.555,37.109,-910.156,-370.117,25.879,37.109,0
1539630456.559,41.016,-920.898,-356.934,22.461,63.965,0
1539630456.563,40.039,-649.902,-329.590,21.973,95.703,0
1539630456.567,38.086,-655.762,-342.773,22.461,83.984,0
1539630456.571,32.715,-835.449,-354.492,23.438,33.203,0
1539630456.574,29.297,-738.281,-363.770,24.414,44.922,0
1539630456.578,26.367,-698.242,-379.883,23.438,5.859,0
1539630456.582,20.996,-832.520,-389.648,22.461,-2.441,0
1539630456.586,21.484,-912.598,-395.996,24.902,47.852,0
1539630456.590,21.484,-916.504,-406.738,23.926,57.617,0
1539630456.594,20.508,-966.797,-402.832,16.602,-22.461,0
1539630456.598,16.113,-965.332,-377.930,15.137,-7.324,0
1539630456.602,16.113,-958.984,-366.699,16.113,73.242,0
1539630456.606,17.578,-795.898,-350.098,20.996,60.059,0
1539630456.610,20.508,-645.020,-349.121,20.996,31.250,0
1539630456.614,23.438,-812.500,-357.910,20.020,-2.930,0
1539630456.617,22.949,-805.176,-357.422,23.926,55.176,0
1539630456.621,23.926,-656.250,-366.699,25.391,60.547,0
1539630456.625,23.926,-702.637,-378.418,25.391,13.184,0
1539630456.629,20.508,-753.906,-370.605,26.367,63.965,0
1539630456.633,20.020,-753.418,-365.234,22.461,65.918,0
1539630456.637,20.020,-861.328,-370.117,17.090,13.184,0
1539630456.641,22.461,-978.516,-379.395,15.625,9.766,0
1539630456.645,23.926,-969.727,-411.621,13.672,11.719,0
1539630456.649,20.996,-945.312,-409.180,14.160,-19.043,0
1539630456.653,21.973,-754.395,-371.094,13.184,8.301,0
1539630456.657,25.391,-697.754,-364.746,12.207,52.246,0
1539630456.660,26.855,-847.656,-363.281,16.602,42.480,0
1539630456.664,29.297,-798.828,-349.121,17.578,15.137,0
1539630456.668,25.879,-708.496,-327.148,18.066,-8.789,0
1539630456.672,22.949,-763.672,-303.711,16.602,34.180,0
1539630456.676,24.414,-832.031,-284.180,6.348,46.875,0
1539630456.680,24.414,-744.629,-255.371,7.812,30.762,0
1539630456.684,25.391,-853.027,-250.977,15.625,-11.230,0
1539630456.688,26.367,-995.117,-251.953,16.113,-11.230,0
1539630456.692,24.902,-947.754,-226.074,15.137,65.918,0
1539630456.696,28.320,-773.438,-188.477,13.184,72.754,0
1539630456.699,32.227,-726.074,-174.805,18.555,74.707,0
1539630456.703,28.809,-909.180,-161.133,20.996,49.805,0
1539630456.707,22.461,-845.703,-134.277,15.625,30.762,0
1539630456.711,20.996,-688.477,-120.605,15.137,2.441,0
1539630456.715,17.090,-680.664,-117.676,18.555,-12.695,0
1539630456.719,15.625,-716.797,-115.723,22.949,50.293,0
1539630456.723,14.160,-730.957,-114.746,24.902,50.781,0
1539630456.727,12.695,-624.512,-105.469,27.832,65.918,0
1539630456.731,16.602,-774.902,-101.562,29.297,64.453,0
1539630456.735,18.555,-975.098,-93.750,27.832,32.227,0
1539630456.739,19.043,-920.410,-56.152,27.832,13.184,0
1539630456.742,12.207,-680.664,-16.113,27.344,50.293,0
1539630456.746,10.254,-620.117,-4.883,27.832,70.312,0
1539630456.750,12.695,-718.750,5.371,27.344,94.727,0
1539630456.754,7.324,-635.742,10.742,24.902,93.262,0
1539630456.758,6.836,-679.688,-11.719,21.484,56.641,0
1539630456.762,13.184,-819.824,-27.344,20.996,53.223,0
1539630456.766,16.602,-779.297,-32.227,19.531,85.449,0
1539630456.770,19.043,-674.316,-47.363,13.184,64.453,0
1539630456.774,22.461,-683.594,-49.316,10.742,33.203,0
1539630456.778,23.438,-841.309,-80.566,10.742,53.223,0
1539630456.782,21.484,-1000.000,-115.234,8.789,9.277,0
1539630456.785,18.066,-792.969,-125.977,11.230,92.285,0
1539630456.789,17.090,-620.117,-165.527,19.043,96.680,0
1539630456.793,24.414,-856.445,-187.988,22.949,-13.184,0
1539630456.797,27.344,-948.730,-185.059,24.414,-3.418,0
1539630456.801,22.949,-743.164,-190.918,26.855,54.688,0
1539630456.805,21.484,-677.246,-211.426,30.273,63.477,0
1539630456.809,22.949,-867.676,-236.328,32.715,-10.254,0
1539630456.813,23.926,-855.957,-242.188,28.809,51.758,0
1539630456.817,20.508,-829.102,-245.605,24.414,65.430,0
1539630456.821,21.484,-870.605,-253.906,24.902,10.742,0
1539630456.824,24.414,-902.832,-262.207,28.320,40.527,0
1539630456.828,22.461,-962.891,-258.789,29.785,39.062,0
1539630456.832,21.973,-801.270,-227.539,27.832,43.945,0
1539630456.836,23.926,-719.727,-201.660,25.391,51.758,0
1539630456.840,22.949,-879.883,-181.152,21.973,54.199,0
1539630456.844,23.926,-880.859,-163.574,16.602,33.691,0
1539630456.848,20.508,-724.609,-170.898,15.625,13.672,0
1539630456.852,13.184,-765.137,-206.543,14.648,43.457,0
1539630456.856,12.695,-896.973,-237.305,10.742,17.090,0
1539630456.860,17.090,-838.867,-244.629,10.742,-9.277,0
1539630456.864,25.391,-730.469,-248.047,19.043,23.438,0
1539630456.867,29.297,-800.781,-261.230,28.809,29.297,0
1539630456.871,29.785,-961.914,-266.113,32.227,16.113,0
1539630456.875,36.133,-987.793,-261.230,31.738,29.785,0
1539630456.879,36.133,-907.715,-278.809,34.180,23.438,0
1539630456.883,30.273,-872.559,-323.730,33.691,66.895,0
1539630456.887,27.832,-970.703,-348.145,33.203,73.242,0
1539630456.891,21.484,-802.734,-321.777,30.273,85.449,0
1539630456.895,20.508,-604.492,-313.477,27.832,107.422,0
1539630456.899,22.949,-740.234,-316.406,31.250,88.379,0
1539630456.903,22.949,-752.930,-301.270,34.180,95.703,0
1539630456.907,22.949,-666.504,-294.922,35.156,62.988,0
1539630456.910,28.320,-814.453,-295.410,31.738,1.465,0
1539630456.914,33.203,-898.926,-269.531,29.785,-14.160,0
1539630456.918,30.762,-947.266,-245.605,31.738,-8.789,0
1539630456.922,26.855,-988.770,-228.516,26.855,-5.859,0
1539630456.926,26.855,-833.496,-214.355,25.391,31.250,0
1539630456.930,30.273,-868.164,-222.168,18.555,54.688,0
1539630456.934,31.250,-933.594,-194.336,12.695,33.203,0
1539630456.938,28.809,-685.059,-160.645,15.625,16.602,0
1539630456.942,33.691,-667.480,-179.688,10.254,21.973,0
1539630456.946,39.062,-790.039,-195.312,3.418,38.574,0
1539630456.949,28.809,-718.262,-196.289,0.000,23.438,0
1539630456.953,21.484,-583.984,-199.707,0.488,54.199,0
1539630456.957,24.902,-679.199,-208.496,0.977,57.129,0
1539630456.961,23.438,-857.422,-225.586,-1.953,-39.551,0
1539630456.965,23.438,-898.926,-238.770,-3.418,1.465,0
1539630456.969,22.949,-852.539,-228.027,-0.488,76.172,0
1539630456.973,21.484,-859.375,-224.121,6.836,26.367,0
1539630456.977,20.020,-945.801,-224.609,10.254,69.824,0
1539630456.981,18.555,-731.445,-201.660,19.531,101.074,0
1539630456.985,18.066,-547.363,-214.844,34.180,69.336,0
1539630456.989,21.484,-753.906,-246.582,39.551,28.320,0
1539630456.992,28.809,-875.977,-235.352,41.504,7.812,0
1539630456.996,33.203,-666.016,-207.031,46.875,43.457,0
1539630457.000,27.344,-585.938,-190.430,43.457,59.082,0
1539630457.004,21.484,-720.215,-172.363,36.621,17.090,0
1539630457.008,22.949,-748.535,-154.785,37.109,11.230,0
1539630457.012,28.809,-801.758,-147.949,40.039,35.645,0
1539630457.016,27.832,-836.426,-150.879,37.598,41.992,0
1539630457.020,21.973,-887.695,-165.527,33.691,-2.930,0
1539630457.024,19.531,-910.156,-150.391,32.227,8.301,0
1539630457.028,14.160,-684.082,-122.559,33.691,22.949,0
1539630457.032,13.184,-670.898,-122.070,35.156,-11.230,0
1539630457.035,14.648,-784.668,-117.188,33.203,-1.465,0
1539630457.039,16.113,-682.617,-128.418,29.297,30.273,0
1539630457.043,16.113,-528.809,-144.043,27.344,76.660,0
1539630457.047,17.090,-712.891,-147.949,30.273,37.109,0
1539630457.051,23.438,-865.723,-147.949,32.227,-4.883,0
1539630457.055,24.414,-706.055,-140.625,28.320,5.371,0
1539630457.059,21.484,-789.062,-138.184,28.320,2.441,0
1539630457.063,21.484,-944.336,-152.832,29.297,-2.441,0
1539630457.067,22.461,-954.102,-163.574,25.879,26.855,0
1539630457.071,29.297,-793.945,-157.715,29.297,28.809,0
1539630457.074,30.762,-611.816,-167.480,31.250,23.438,0
1539630457.078,27.832,-767.578,-187.012,21.484,-0.977,0
1539630457.082,27.344,-831.055,-191.895,21.973,-0.488,0
1539630457.086,26.855,-650.879,-189.453,21.484,33.203,0
1539630457.090,27.344,-702.637,-197.266,17.090,-41.504,0
1539630457.094,26.367,-736.328,-215.820,15.137,39.551,0
1539630457.098,23.926,-701.660,-238.770,15.137,80.078,0
1539630457.102,25.879,-638.672,-248.047,19.531,54.199,0
1539630457.106,27.832,-750.977,-247.070,24.414,92.773,0
1539630457.110,27.832,-967.773,-243.652,24.902,39.551,0
1539630457.114,24.414,-910.645,-220.703,24.414,-10.254,0
1539630457.117,23.438,-713.867,-193.848,30.273,9.277,0
1539630457.121,31.738,-697.266,-202.148,40.039,75.195,0
1539630457.125,35.156,-812.988,-221.680,45.898,50.293,0
1539630457.129,31.250,-760.254,-229.492,51.270,1.465,0
1539630457.133,32.715,-650.879,-230.469,51.758,7.812,0
1539630457.137,34.668,-721.680,-254.883,51.270,23.438,0
1539630457.141,31.250,-796.387,-278.320,47.852,60.059,0
1539630457.145,33.203,-657.227,-277.832,41.016,100.098,0
1539630457.149,38.086,-572.754,-287.109,43.457,106.934,0
1539630457.153,43.457,-787.598,-310.059,50.293,93.750,0
1539630457.157,33.203,-995.605,-315.430,35.156,37.598,0
1539630457.160,16.602,-833.496,-281.250,18.066,26.367,0
1539630457.164,13.184,-708.984,-264.648,13.184,86.426,0
1539630457.168,10.254,-832.031,-253.906,6.348,68.848,0
1539630457.172,0.000,-853.516,-236.328,-4.883,13.184,0
1539630457.176,-20.508,-760.742,-222.656,-28.809,-26.367,0
1539630457.180,-40.039,-742.188,-202.148,-49.805,-18.555,0
1539630457.184,-57.129,-797.852,-179.199,-70.312,32.715,0
1539630457.188,-75.684,-791.016,-138.672,-85.449,49.805,0
1539630457.192,-89.355,-744.141,-9.766,-96.680,-15.137,0
1539630457.196,-98.145,-695.312,118.652,-109.863,-4.883,0
1539630457.199,-104.492,-852.051,129.883,-113.770,-17.578,0
1539630457.203,-112.793,-949.707,108.398,-115.234,-19.043,0
1539630457.207,-113.281,-777.832,20.020,-119.141,-3.906,0
1539630457.211,-111.816,-694.824,-137.207,-119.141,41.504,0
1539630457.215,-112.305,-862.305,-263.184,-115.234,109.863,0
1539630457.219,-102.051,-916.992,-338.379,-109.375,67.383,0
1539630457.223,-96.680,-888.184,-396.484,-102.539,19.043,0
1539630457.227,-92.773,-926.758,-435.059,-94.238,13.184,0
1539630457.231,-80.566,-939.453,-447.266,-79.102,-23.926,0
1539630457.235,-78.125,-816.406,-438.477,-69.336,39.551,0
1539630457.239,-73.730,-684.570,-444.824,-63.965,88.379,0
1539630457.242,-60.059,-819.824,-468.262,-50.293,34.180,0
1539630457.246,-50.293,-973.145,-476.074,-38.086,-17.090,0
1539630457.250,-35.645,-980.957,-470.215,-27.344,0.000,0
1539630457.254,-20.996,-849.609,-458.496,-7.812,30.273,0
1539630457.258,-10.742,-858.887,-454.590,-0.488,22.461,0
1539630457.262,1.465,-958.496,-430.664,4.883,62.500,0
1539630457.266,9.277,-800.293,-390.625,16.602,39.551,0
1539630457.270,13.184,-643.066,-389.160,23.926,29.785,0
1539630457.274,20.508,-739.258,-386.719,31.738,37.598,0
1539630457.278,30.273,-853.516,-371.094,40.527,14.160,0
1539630457.282,38.574,-846.191,-354.492,50.781,-18.555,0
1539630457.285,44.434,-721.191,-331.543,56.152,0.000,0
1539630457.289,46.387,-680.176,-320.312,56.641,54.199,0
1539630457.293,44.922,-801.758,-307.129,57.617,78.125,0
1539630457.297,48.340,-836.426,-289.062,62.012,79.102,0
1539630457.301,48.340,-672.852,-273.926,66.406,83.984,0
1539630457.305,50.781,-784.180,-284.180,65.918,71.289,0
1539630457.309,57.617,-916.016,-265.137,63.965,10.742,0
1539630457.313,60.547,-660.156,-234.863,65.918,-1.953,0
1539630457.317,62.500,-632.812,-241.699,69.824,21.973,0
1539630457.321,64.941,-696.777,-240.234,73.242,76.660,0
1539630457.324,70.312,-648.438,-221.191,70.801,18.066,0
1539630457.328,74.219,-573.242,-194.824,71.777,19.531,0
1539630457.332,79.590,-721.191,-187.988,72.754,39.062,0
1539630457.336,81.055,-871.094,-182.617,72.266,-13.672,0
1539630457.340,80.566,-809.082,-169.434,70.312,19.043,0
1539630457.344,81.055,-804.688,-164.551,65.918,38.574,0
1539630457.348,79.102,-910.645,-169.434,67.383,7.324,0
1539630457.352,73.730,-960.449,-163.574,67.383,38.574,0
1539630457.356,68.848,-704.590,-142.578,64.941,80.078,0
1539630457.360,67.871,-447.266,-137.207,68.848,107.422,0
1539630457.364,67.871,-632.812,-140.137,67.871,42.480,0
1539630457.367,66.406,-732.422,-131.836,62.988,1.465,0
1539630457.371,61.523,-559.570,-120.117,62.500,37.598,0
1539630457.375,58.594,-512.207,-118.164,60.059,71.289,0
1539630457.379,60.059,-602.539,-109.375,61.035,72.266,0
1539630457.383,59.570,-633.301,-95.703,63.965,46.387,0
1539630457.387,61.035,-720.703,-92.285,63.477,43.945,0
1539630457.391,65.430,-769.043,-83.008,65.430,49.805,0
1539630457.395,64.453,-846.680,-87.891,59.082,37.598,0
1539630457.399,57.617,-901.367,-79.590,56.152,19.043,0
1539630457.403,56.641,-642.578,-59.082,61.035,8.789,0
1539630457.407,57.129,-618.164,-63.477,58.105,4.883,0
1539630457.410,55.664,-737.793,-60.547,52.246,26.855,2
1539630457.414,52.734,-694.336,-47.852,47.363,4.395,0
1539630457.418,43.945,-577.148,-41.992,46.387,6.836,0
1539630457.422,41.992,-692.871,-51.270,41.504,-7.812,0
1539630457.426,47.852,-760.742,-46.387,35.645,24.902,0
1539630457.430,44.922,-643.555,-39.062,37.598,32.715,0
1539630457.434,42.969,-758.789,-44.922,37.598,17.578,0
1539630457.438,43.457,-911.133,-54.688,31.738,21.484,0
1539630457.442,42.969,-968.750,-49.805,31.738,-12.695,0
1539630457.446,41.016,-789.551,-22.461,27.832,9.766,0
1539630457.449,36.133,-596.680,-24.414,23.438,6.836,0
1539630457.453,29.297,-712.891,-31.250,22.949,40.039,0
1539630457.457,25.391,-742.188,-24.902,22.949,97.168,0
1539630457.461,27.832,-581.055,-17.578,23.926,72.266,0
1539630457.465,29.785,-481.445,-19.043,26.855,112.793,0
1539630457.469,30.762,-569.824,-25.391,30.273,123.535,0
1539630457.473,29.785,-729.492,-24.902,25.879,3.418,0
1539630457.477,31.738,-641.113,-15.625,28.320,20.020,0
1539630457.481,32.227,-724.609,-18.555,31.738,79.590,0
1539630457.485,29.785,-953.613,-28.320,30.762,15.137,0
1539630457.489,27.832,-908.203,-7.324,35.156,6.348,0
1539630457.492,27.344,-669.922,14.648,37.598,38.086,0
1539630457.496,30.762,-571.289,1.953,41.504,78.125,0
1539630457.500,32.715,-695.801,-0.488,41.992,76.660,0
1539630457.504,33.203,-648.438,16.113,38.574,65.430,0
1539630457.508,26.855,-502.441,21.484,32.715,99.121,0
1539630457.512,26.855,-752.930,6.836,30.762,29.785,0
1539630457.516,28.809,-866.699,13.184,36.621,16.602,0
1539630457.520,28.809,-626.953,30.273,38.574,67.871,0
1539630457.524,30.762,-564.941,23.438,38.574,62.012,0
1539630457.528,36.621,-774.414,7.812,42.480,63.477,0
1539630457.532,36.133,-1000.000,11.719,40.039,8.301,0
1539630457.535,32.227,-856.934,41.016,39.062,-38.086,0
1539630457.539,30.273,-625.000,42.480,41.504,26.367,0
1539630457.543,32.227,-793.457,33.203,41.016,32.715,0
1539630457.547,31.738,-865.723,41.016,35.156,-1.953,0
1539630457.551,27.832,-628.906,52.246,33.203,41.992,0
1539630457.555,32.715,-571.289,46.875,33.203,47.363,0
1539630457.559,36.133,-713.867,39.062,31.250,17.090,0
1539630457.563,32.715,-776.367,38.574,34.180,-5.371,0
1539630457.567,30.273,-762.207,40.527,30.273,-70.312,0
1539630457.571,29.785,-770.996,48.340,26.855,13.184,0
1539630457.574,28.809,-893.555,45.898,27.832,0.977,0
1539630457.578,28.320,-998.535,47.363,26.855,-48.828,0
1539630457.582,25.879,-847.168,52.734,26.855,-10.742,0
1539630457.586,26.367,-674.805,54.199,29.297,10.254,0
1539630457.590,27.832,-876.465,44.434,26.855,28.809,0
1539630457.594,26.855,-913.574,49.805,27.832,51.270,0
1539630457.598,33.691,-664.551,62.500,34.180,18.555,0
1539630457.602,37.109,-700.684,55.176,39.062,-1.953,0
1539630457.606,33.691,-808.105,53.711,34.668,29.785,0
1539630457.610,37.598,-732.422,63.477,35.645,6.836,0
1539630457.614,40.527,-653.809,67.871,39.551,-15.137,0
1539630457.617,37.598,-723.145,55.664,39.062,13.672,0
1539630457.621,36.133,-854.492,52.246,39.551,62.988,0
1539630457.625,35.645,-900.391,52.246,37.598,45.898,0
1539630457.629,31.738,-882.812,52.734,36.133,-7.812,0
1539630457.633,28.809,-863.281,50.781,34.180,14.648,0
1539630457.637,34.180,-964.355,40.039,31.250,18.555,0
1539630457.641,32.227,-840.332,51.758,31.738,-22.461,0
1539630457.645,24.414,-575.195,54.688,29.785,54.199,0
1539630457.649,26.367,-682.129,43.945,26.367,59.082,0
1539630457.653,23.438,-771.484,47.363,24.902,5.371,0
1539630457.657,15.137,-600.098,55.664,22.949,44.434,0
1539630457.660,12.695,-581.055,49.316,17.090,50.293,0
1539630457.664,12.695,-733.398,41.504,15.625,4.883,0
1539630457.668,11.230,-888.184,36.133,25.879,0.000,0
1539630457.672,14.160,-895.996,28.809,28.809,29.297,0
1539630457.676,17.090,-753.418,26.367,25.879,31.738,0
1539630457.680,22.461,-823.730,10.742,30.273,39.551,0
1539630457.684,24.902,-1000.000,2.930,29.297,15.137,0
1539630457.688,21.484,-845.703,15.625,26.855,0.000,0
1539630457.692,22.949,-673.340,16.113,23.438,52.246,0
1539630457.696,25.879,-756.836,2.441,20.996,27.832,0
1539630457.699,26.855,-674.316,3.906,21.973,26.367,0
1539630457.703,30.762,-557.129,4.883,24.902,36.621,0
1539630457.707,34.668,-642.578,-0.977,31.738,52.246,0
1539630457.711,37.109,-704.590,0.000,33.691,60.059,0
1539630457.715,32.227,-785.156,1.465,31.738,41.016,0
1539630457.719,27.344,-776.367,9.766,33.691,74.219,0
1539630457.723,30.762,-743.164,2.930,37.109,94.238,0
1539630457.727,31.738,-968.262,-4.883,27.832,58.105,0
1539630457.731,27.344,-859.375,22.461,20.020,5.371,0
1539630457.735,24.902,-608.887,25.391,23.926,4.883,0
1539630457.739,28.809,-665.527,12.695,25.391,39.551,0
1539630457.742,29.297,-794.434,5.859,24.414,49.316,0
1539630457.746,30.273,-722.168,15.137,28.320,68.359,0
1539630457.750,34.180,-565.918,21.484,29.785,99.609,0
1539630457.754,30.762,-609.375,14.648,24.902,104.492,0
1539630457.758,25.879,-595.703,28.809,23.438,109.375,0
1539630457.762,22.461,-637.695,38.086,20.020,116.699,0
1539630457.766,20.020,-812.012,40.039,13.672,68.848,0
1539630457.770,13.184,-935.059,30.273,12.207,44.922,0
1539630457.774,11.230,-873.047,25.879,13.672,67.871,0
1539630457.778,19.531,-626.465,32.715,17.578,41.992,0
1539630457.782,23.926,-617.676,9.766,25.391,24.414,0
1539630457.785,25.879,-736.328,-11.230,31.738,39.551,0
1539630457.789,27.832,-670.898,-5.859,31.250,31.738,0
1539630457.793,28.809,-592.773,-12.207,28.809,14.648,0
1539630457.797,29.297,-657.715,-36.133,27.344,39.062,0
1539630457.801,29.297,-810.059,-46.875,27.832,59.570,0
1539630457.805,28.320,-798.340,-44.434,29.297,34.180,0
1539630457.809,28.809,-798.340,-46.387,30.273,10.742,0
1539630457.813,27.832,-918.457,-54.688,31.250,39.551,0
1539630457.817,23.926,-952.637,-50.293,28.809,84.961,0
1539630457.821,21.973,-765.137,-32.715,29.785,62.500,0
1539630457.824,23.926,-595.215,-42.480,29.785,5.859,0
1539630457.828,25.391,-695.312,-47.852,27.344,27.344,0
1539630457.832,22.461,-673.340,-27.344,31.738,89.844,0
1539630457.836,23.438,-534.180,-18.555,33.203,73.242,0
1539630457.840,28.809,-539.062,-24.902,32.227,51.270,0
1539630457.844,23.438,-639.648,-26.855,27.832,58.105,0
1539630457.848,21.973,-658.203,-26.367,23.926,60.547,0
1539630457.852,25.879,-572.266,-36.621,26.855,52.734,0
1539630457.856,28.809,-743.164,-53.711,26.855,41.992,0
1539630457.860,29.297,-967.285,-70.801,25.391,20.996,0
1539630457.864,25.391,-894.043,-61.523,26.367,24.902,0
1539630457.867,23.438,-670.410,-40.527,29.297,13.672,0
1539630457.871,19.531,-602.539,-47.363,31.250,32.227,0
1539630457.875,19.043,-731.934,-57.129,24.902,48.340,0
1539630457.879,22.461,-726.074,-46.387,18.555,12.695,0
1539630457.883,20.020,-582.031,-31.738,20.508,27.832,0
1539630457.887,18.555,-617.676,-30.762,25.879,57.129,0
1539630457.891,18.555,-751.465,-34.180,27.832,29.297,0
1539630457.895,24.414,-651.367,-29.297,23.438,53.711,0
1539630457.899,27.832,-574.707,-35.645,22.461,70.801,0
1539630457.903,26.855,-820.801,-62.012,26.367,20.508,0
1539630457.907,28.809,-980.957,-73.730,20.996,66.895,0
1539630457.910,21.973,-806.641,-72.266,12.207,52.246,0
1539630457.914,18.555,-658.203,-93.750,11.230,0.977,0
1539630457.918,17.090,-843.262,-124.023,13.184,1.465,0
1539630457.922,12.695,-872.559,-125.488,12.695,18.555,0
1539630457.926,11.230,-660.645,-107.910,13.184,30.273,0
1539630457.930,15.625,-654.785,-105.957,18.555,-2.441,0
1539630457.934,17.578,-738.770,-109.863,17.090,21.973,0
1539630457.938,17.090,-713.379,-113.770,15.137,71.777,0
1539630457.942,21.484,-601.074,-125.000,23.438,75.195,0
1539630457.946,23.438,-615.234,-146.973,24.902,51.270,0
1539630457.949,19.531,-817.383,-163.574,22.461,50.781,0
1539630457.953,17.578,-980.469,-171.387,24.902,32.227,0
1539630457.957,19.531,-890.625,-177.246,23.926,-29.297,0
1539630457.961,20.996,-750.000,-196.289,23.926,-11.719,0
1539630457.965,25.391,-913.574,-269.531,25.879,-25.391,0
1539630457.969,27.344,-891.113,-316.895,26.855,19.531,0
1539630457.973,25.879,-688.965,-337.402,23.438,54.688,0
1539630457.977,23.926,-874.512,-370.605,23.438,-16.602,0
1539630457.981,21.973,-945.312,-371.094,25.879,-14.648,0
1539630457.985,20.508,-732.422,-368.652,24.902,54.199,0
1539630457.989,16.113,-619.629,-389.160,26.367,77.637,0
1539630457.992,13.184,-765.137,-418.945,25.391,31.250,0
1539630457.996,15.137,-981.445,-437.500,25.391,-27.344,0
1539630458.000,13.672,-932.617,-423.828,22.461,-1.465,0
1539630458.004,14.648,-734.863,-411.621,18.555,38.086,0
1539630458.008,19.531,-824.707,-430.176,14.648,-11.230,0
1539630458.012,21.973,-994.629,-422.852,9.277,31.738,0
1539630458.016,21.973,-817.871,-386.719,13.672,55.664,0
1539630458.020,24.414,-634.766,-373.047,18.066,26.855,0
1539630458.024,23.438,-744.629,-370.117,18.555,41.016,0
1539630458.028,25.879,-746.094,-364.258,17.578,55.664,0
1539630458.032,28.809,-775.391,-366.699,17.090,-20.508,0
1539630458.035,23.438,-755.371,-351.074,19.043,62.988,0
1539630458.039,22.949,-669.434,-328.125,20.508,110.352,0
1539630458.043,28.809,-898.926,-325.684,20.020,-12.695,0
1539630458.047,31.738,-910.645,-310.059,23.438,21.484,0
1539630458.051,30.762,-718.750,-290.527,31.738,71.777,0
1539630458.055,29.297,-752.930,-283.691,36.133,45.410,0
1539630458.059,25.879,-706.543,-268.555,30.762,65.430,0
1539630458.063,28.809,-608.398,-261.719,30.273,17.578,0
1539630458.067,34.668,-627.930,-261.719,39.551,21.973,0
1539630458.071,37.109,-865.234,-265.625,39.062,57.617,0
1539630458.074,38.574,-927.734,-247.559,33.691,4.883,0
1539630458.078,39.551,-630.371,-228.516,31.738,25.879,0
1539630458.082,36.133,-569.824,-231.445,31.250,129.395,0
1539630458.086,33.203,-682.129,-233.398,33.203,113.770,0
1539630458.090,33.203,-727.539,-224.121,33.691,74.219,0
1539630458.094,29.297,-766.602,-216.309,33.203,95.215,0
1539630458.098,26.367,-889.160,-233.887,29.297,20.020,0
1539630458.102,21.973,-975.586,-237.305,24.902,-11.230,0
1539630458.106,19.043,-792.480,-211.914,20.508,3.418,0
1539630458.110,20.020,-595.215,-201.660,19.531,8.301,0
1539630458.114,21.973,-696.777,-197.266,18.066,23.926,0
1539630458.117,21.973,-768.555,-187.500,19.043,-6.348,0
1539630458.121,22.949,-641.602,-173.828,18.555,-20.020,0
1539630458.125,29.785,-591.309,-173.340,19.043,14.160,0
1539630458.129,33.203,-683.594,-176.758,23.926,26.367,0
1539630458.133,31.250,-690.918,-173.828,26.367,27.832,0
1539630458.137,32.715,-759.766,-177.246,28.320,15.625,0
1539630458.141,31.738,-814.453,-169.434,26.367,43.945,0
1539630458.145,34.180,-872.559,-183.105,19.043,13.672,0
1539630458.149,34.668,-953.613,-168.945,17.578,22.461,0
1539630458.153,29.785,-758.789,-132.812,20.020,53.711,0
1539630458.157,24.902,-601.562,-140.625,21.973,64.941,0
1539630458.160,24.414,-628.418,-145.996,26.367,112.305,0
1539630458.164,23.438,-561.035,-135.742,25.391,107.422,0
1539630458.168,20.020,-481.934,-128.418,24.902,71.289,0
1539630458.172,15.625,-635.254,-127.930,29.297,24.902,0
1539630458.176,16.113,-758.301,-121.094,32.227,17.090,0
1539630458.180,18.066,-587.891,-100.586,33.203,77.637,0
1539630458.184,17.090,-600.586,-99.121,37.598,125.000,0
1539630458.188,19.043,-825.195,-108.887,35.645,86.914,0
1539630458.192,24.902,-960.938,-108.398,28.320,55.664,0
1539630458.196,27.344,-797.363,-86.914,26.855,34.180,0
1539630458.199,27.832,-540.039,-75.195,24.902,53.711,0
1539630458.203,26.367,-643.066,-82.520,21.484,50.293,0
1539630458.207,23.438,-861.816,-79.102,23.926,-7.812,0
1539630458.211,21.484,-724.609,-62.012,24.414,6.348,0
1539630458.215,21.484,-589.844,-64.453,22.461,13.672,0
1539630458.219,22.949,-691.406,-72.754,18.555,9.766,0
1539630458.223,17.578,-671.875,-63.477,17.090,54.199,0
1539630458.227,20.020,-575.195,-60.547,21.484,52.246,0
1539630458.231,26.855,-785.645,-74.219,25.879,-7.324,0
1539630458.235,21.973,-974.121,-94.238,21.484,-10.254,0
1539630458.239,15.137,-884.277,-83.496,15.137,16.602,0
1539630458.242,11.719,-593.750,-57.129,13.184,87.402,0
1539630458.246,15.137,-552.734,-69.824,13.184,70.801,0
1539630458.250,16.602,-716.309,-80.078,12.695,39.551,0
1539630458.254,14.648,-694.824,-80.566,12.207,11.719,0
1539630458.258,19.043,-619.141,-80.078,14.160,-17.578,0
1539630458.262,16.113,-688.477,-83.984,12.207,1.465,0
1539630458.266,11.230,-850.586,-89.355,12.695,21.484,0
1539630458.270,12.695,-722.168,-70.801,16.602,53.711,0
1539630458.274,15.137,-576.172,-66.406,17.090,43.457,0
1539630458.278,17.578,-794.434,-84.473,20.996,28.809,0
1539630458.282,22.461,-989.258,-77.148,20.020,63.477,0
1539630458.285,18.066,-809.082,-45.410,19.531,49.316,0
1539630458.289,14.160,-574.219,-43.457,22.949,33.691,0
1539630458.293,19.531,-675.293,-58.594,21.484,56.641,0
1539630458.297,16.602,-724.609,-51.758,18.555,69.336,0
1539630458.301,19.043,-610.352,-42.480,17.090,38.574,0
1539630458.305,30.762,-567.383,-43.457,19.043,51.270,0
1539630458.309,28.320,-646.973,-38.086,22.949,63.477,0
1539630458.313,29.785,-666.992,-28.809,22.461,67.871,0
1539630458.317,34.180,-664.551,-33.203,19.531,-10.742,0
1539630458.321,30.273,-661.133,-40.039,20.996,-8.789,0
1539630458.324,27.344,-726.074,-52.734,22.461,79.590,0
1539630458.328,25.391,-899.902,-64.453,23.438,75.684,0
1539630458.332,23.926,-832.031,-62.012,24.414,43.945,0
1539630458.336,25.391,-654.297,-64.453,22.949,50.781,0
1539630458.340,27.832,-847.168,-92.285,15.625,36.133,0
1539630458.344,30.762,-938.477,-79.590,12.695,12.207,0
1539630458.348,32.227,-662.598,-60.547,18.555,19.531,0
1539630458.352,38.574,-656.250,-77.637,23.438,20.020,0
1539630458.356,46.387,-808.105,-79.102,25.879,-3.906,0
1539630458.360,67.871,-697.754,-49.316,45.410,18.066,0
1539630458.364,71.289,-556.641,-44.434,57.617,52.246,0
1539630458.367,55.664,-695.312,-91.797,52.246,5.859,0
1539630458.371,58.105,-925.293,-74.707,53.223,-19.043,0
1539630458.375,51.758,-890.137,-41.992,47.363,23.438,0
1539630458.379,63.477,-796.387,-69.824,62.500,3.418,0
1539630458.383,52.246,-877.441,-49.316,55.176,4.883,0
1539630458.387,24.414,-953.613,11.719,28.320,15.625,0
1539630458.391,21.484,-732.910,38.086,27.344,-46.875,0
1539630458.395,32.227,-465.820,41.504,34.180,-50.293,0
1539630458.399,43.945,-456.543,27.832,50.293,-3.906,0
1539630458.403,62.988,-389.160,13.184,77.148,-6.348,0
1539630458.407,69.336,-72.266,31.250,82.520,62.988,0
1539630458.410,26.367,110.352,81.055,36.621,95.703,0
1539630458.414,2.441,152.832,157.715,13.672,91.309,0
1539630458.418,5.371,139.160,182.129,21.973,85.938,0
1539630458.422,10.254,197.266,165.039,27.832,54.688,0
1539630458.426,10.254,566.895,153.320,32.227,82.520,0
1539630458.430,24.414,405.273,103.027,41.016,59.570,0
1539630458.434,54.199,268.555,26.367,64.941,-49.316,0
1539630458.438,55.176,735.352,-50.293,67.871,-51.270,0
1539630458.442,56.152,827.148,-66.895,63.477,-24.414,0
1539630458.446,42.969,879.395,-31.738,57.617,-33.691,0
1539630458.449,12.207,999.023,-2.441,31.738,26.367,0
1539630458.453,-0.977,-998.535,20.996,14.648,9.277,0
1539630458.457,-1.953,995.117,28.809,9.766,42.480,0
1539630458.461,-2.930,-999.023,-2.441,8.301,81.543,0
1539630458.465,-2.441,995.117,-141.113,10.254,11.719,0
1539630458.469,4.395,-993.652,-300.293,15.625,-4.883,0
1539630458.473,4.395,985.352,-347.168,17.090,36.133,0
1539630458.477,6.348,937.988,-270.020,14.648,36.133,0
1539630458.481,9.766,989.258,-181.152,16.113,3.418,0
1539630458.485,13.184,-994.141,-241.699,22.461,7.812,0
1539630458.489,16.602,991.211,-385.254,24.414,74.219,0
1539630458.492,13.672,-994.141,-507.812,22.461,83.008,0
1539630458.496,13.672,965.332,-548.340,24.902,6.836,0
1539630458.500,19.531,928.711,-665.527,26.855,27.832,0
1539630458.504,17.090,869.629,-796.875,23.438,49.316,0
1539630458.508,16.113,803.223,-897.461,23.926,40.039,0
1539630458.512,20.020,703.613,-974.609,26.367,90.820,0
1539630458.516,20.508,600.586,-968.750,28.320,101.074,0
1539630458.520,21.484,256.836,-969.727,27.344,29.785,0
1539630458.524,21.973,104.004,-971.191,23.438,-20.996,0
1539630458.528,19.531,507.812,-971.191,20.508,-13.672,0
1539630458.532,22.461,594.727,-971.191,20.020,31.738,0
1539630458.535,24.414,431.152,-971.191,20.996,35.645,0
1539630458.539,21.484,467.773,-971.191,18.555,45.410,0
1539630458.543,20.996,520.020,-971.191,18.555,35.156,0
1539630458.547,20.996,335.449,-971.191,20.508,2.441,0
1539630458.551,24.902,249.023,-971.191,18.555,52.246,0
1539630458.555,26.367,270.508,-971.680,11.719,128.418,0
1539630458.559,25.879,107.910,-967.773,11.230,112.793,0
1539630458.563,26.855,-47.852,-972.656,7.812,107.910,0
1539630458.567,25.879,-337.891,-958.008,-0.977,61.035,0
1539630458.571,26.855,-193.359,-839.844,4.395,20.996,0
1539630458.574,28.809,133.789,-723.633,9.766,43.457,0
1539630458.578,32.227,-22.949,-659.180,8.789,18.066,0
1539630458.582,33.203,-102.539,-579.590,9.766,10.742,0
1539630458.586,26.367,58.105,-508.789,9.766,42.969,0
1539630458.590,29.297,65.430,-463.867,6.836,50.293,0
1539630458.594,33.691,-185.547,-437.988,6.836,-12.207,0
1539630458.598,30.273,-323.242,-395.996,7.812,-3.906,0
1539630458.602,31.250,-253.906,-351.074,8.789,-23.438,0
1539630458.606,29.297,-360.840,-325.684,10.254,21.973,0
1539630458.610,24.414,-591.797,-304.199,6.836,109.375,0
1539630458.614,22.949,-721.680,-279.785,4.883,41.504,0
1539630458.617,20.508,-514.648,-246.094,5.859,78.125,0
1539630458.621,24.414,-436.523,-227.539,9.766,107.422,0
1539630458.625,29.297,-791.016,-224.609,11.230,81.055,0
1539630458.629,30.762,-916.016,-201.660,6.836,60.547,0
1539630458.633,30.762,-846.680,-177.246,10.254,-10.254,0
1539630458.637,34.180,-953.125,-162.109,18.555,-3.906,2
1539630458.641,35.156,-970.703,-139.160,17.578,29.785,0
1539630458.645,34.668,-969.727,-108.887,11.719,24.902,0
1539630458.649,38.086,-970.703,-87.891,12.207,65.430,0
1539630458.653,36.133,-971.191,-104.492,16.113,19.531,0
1539630458.657,30.273,-971.191,-107.910,13.184,6.348,0
1539630458.660,27.344,-971.191,-75.684,5.371,58.105,0
1539630458.664,25.879,-970.703,-68.359,3.418,41.992,0
1539630458.668,26.367,-970.703,-67.383,7.812,58.105,0
1539630458.672,28.809,-971.191,-58.105,10.254,75.195,0
1539630458.676,31.250,-971.191,-40.039,6.348,22.461,0
1539630458.680,30.273,-970.703,-19.531,3.418,4.883,0
1539630458.684,24.414,-970.703,-4.883,9.277,26.367,0
1539630458.688,23.438,-971.191,9.277,15.137,76.172,0
1539630458.692,28.320,-971.191,20.508,18.066,23.926,0
1539630458.696,33.691,-971.191,34.180,26.367,-53.223,0
1539630458.699,34.668,-971.191,35.645,28.809,-24.902,0
1539630458.703,33.203,-970.703,55.176,26.855,41.992,0
1539630458.707,34.180,-971.191,74.707,26.367,43.457,0
1539630458.711,35.645,-971.191,73.242,30.762,-21.973,0
1539630458.715,36.621,-971.191,78.613,31.738,36.133,0
1539630458.719,36.133,-971.191,75.195,28.809,27.344,0
1539630458.723,31.738,-970.703,84.961,26.367,-27.832,0
1539630458.727,30.762,-971.191,101.562,23.926,64.941,0
1539630458.731,31.738,-971.191,111.328,25.879,80.566,0
1539630458.735,25.879,-970.703,129.883,22.461,60.547,0
1539630458.739,22.949,-970.703,136.719,21.973,63.477,0
1539630458.742,24.414,-970.703,134.766,20.996,60.059,0
1539630458.746,29.785,-971.191,137.695,16.113,50.781,0
1539630458.750,31.738,-971.191,161.133,19.043,46.387,0
1539630458.754,30.273,-970.703,183.105,23.926,42.480,0
1539630458.758,36.621,-970.703,176.270,24.414,16.113,0
1539630458.762,32.227,-971.191,182.129,16.113,53.711,0
1539630458.766,26.367,-971.191,208.984,14.648,29.297,0
1539630458.770,28.809,-970.703,218.262,21.484,-5.859,0
1539630458.774,27.344,-971.191,225.098,22.949,9.277,0
1539630458.778,28.809,-971.191,245.117,18.066,54.199,0
1539630458.782,29.297,-970.703,254.395,14.648,102.539,0
1539630458.785,32.227,-970.703,250.977,17.578,58.594,0
1539630458.789,36.621,-971.191,259.766,18.066,22.949,0
1539630458.793,37.109,-971.191,263.672,18.066,9.277,0
1539630458.797,34.180,-970.703,274.902,20.996,-15.137,0
1539630458.801,30.762,-971.191,285.156,23.438,8.789,0
1539630458.805,32.715,-971.191,259.277,24.414,-7.324,0
1539630458.809,30.273,-971.191,268.066,20.508,-14.160,0
1539630458.813,28.320,-971.191,276.367,22.949,20.996,0
1539630458.817,31.250,-971.191,255.859,27.344,43.945,0
1539630458.821,34.180,-970.703,236.328,26.855,72.754,0
1539630458.824,39.551,-971.191,209.961,25.391,50.293,0
1539630458.828,42.969,-971.191,210.938,27.344,67.383,0
1539630458.832,43.945,-971.191,222.656,31.738,52.734,0
1539630458.836,40.527,-971.191,233.398,33.203,-8.789,0
1539630458.840,34.668,-971.191,219.238,30.273,39.551,0
1539630458.844,37.109,-971.191,164.062,28.320,76.660,0
1539630458.848,37.598,-971.191,83.984,29.297,30.273,0
1539630458.852,38.574,-971.191,1.465,25.391,-7.324,0
1539630458.856,42.480,-971.191,-45.410,23.438,36.621,0
1539630458.860,39.062,-971.191,-59.082,22.461,62.500,0
1539630458.864,35.645,-971.191,-61.523,22.461,7.324,0
1539630458.867,35.156,-971.191,-27.344,27.832,7.324,0
1539630458.871,31.250,-971.191,0.000,31.738,57.617,0
1539630458.875,36.621,-971.191,0.000,36.621,50.293,0
1539630458.879,39.551,-971.191,-2.441,36.621,47.363,0
1539630458.883,31.738,-971.191,-63.965,35.156,29.297,0
1539630458.887,32.715,-971.191,-87.402,36.133,-29.785,0
1539630458.891,36.133,-971.191,-28.809,32.227,-13.672,0
1539630458.895,35.156,-969.238,12.207,28.809,-5.371,0
1539630458.899,38.574,-972.656,55.176,31.738,-32.715,0
1539630458.903,38.574,-971.191,70.801,33.691,23.438,0
1539630458.907,40.527,-935.547,84.473,33.203,92.285,0
1539630458.910,41.504,-966.309,96.680,33.203,25.879,0
1539630458.914,36.133,-935.547,65.918,33.203,37.598,0
1539630458.918,37.109,-897.461,32.715,35.645,42.969,0
1539630458.922,38.574,-969.238,-19.043,39.551,-22.949,0
1539630458.926,34.180,-970.703,62.012,37.598,-2.441,0
1539630458.930,36.621,-914.551,188.477,37.598,18.555,0
1539630458.934,39.062,-939.941,150.879,38.086,27.344,0
1539630458.938,35.645,-979.004,135.254,32.227,58.105,0
1539630458.942,31.250,-960.449,282.227,24.902,67.383,0
1539630458.946,31.250,-819.824,410.645,24.902,81.055,0
1539630458.949,34.668,-627.930,410.645,26.855,91.309,0
1539630458.953,36.133,-754.883,370.605,29.297,74.707,0
1539630458.957,36.621,-817.871,354.004,28.320,82.520,0
1539630458.961,40.039,-777.344,336.914,29.785,100.098,0
1539630458.965,41.016,-799.316,323.730,33.203,46.875,0
1539630458.969,40.527,-765.137,327.637,36.133,68.359,0
1539630458.973,40.039,-728.027,325.195,36.133,112.793,0
1539630458.977,40.039,-700.195,298.828,30.273,40.527,0
1539630458.981,40.039,-868.164,240.234,30.762,24.902,0
1539630458.985,36.621,-982.910,215.332,30.762,44.434,0
1539630458.989,31.738,-933.594,239.746,25.391,24.902,0
1539630458.992,33.203,-740.234,193.359,27.344,56.641,0
1539630458.996,36.621,-667.969,92.285,34.180,90.820,0
1539630459.000,34.180,-827.637,41.992,38.574,72.754,0
1539630459.004,36.133,-805.664,15.625,38.086,57.617,0
1539630459.008,34.668,-682.617,11.230,36.133,69.336,0
1539630459.012,31.250,-748.535,15.625,35.156,68.848,0
1539630459.016,33.203,-880.371,27.832,31.738,32.715,0
1539630459.020,29.785,-909.180,40.039,30.273,10.254,0
1539630459.024,28.320,-784.180,42.969,34.180,31.250,0
1539630459.028,35.156,-784.180,47.852,37.109,68.848,0
1539630459.032,36.621,-987.305,61.035,34.668,-24.414,0
1539630459.035,31.250,-840.332,101.562,30.762,-46.387,0
1539630459.039,32.715,-645.020,125.488,34.180,-19.531,0
1539630459.043,36.621,-748.047,125.488,35.156,-8.301,0
1539630459.047,35.645,-791.992,127.441,28.809,10.742,0
1539630459.051,30.762,-595.215,134.277,30.273,50.781,0
1539630459.055,31.738,-509.766,123.535,29.785,91.797,0
1539630459.059,33.203,-666.504,117.188,26.367,42.480,0
1539630459.063,32.715,-746.582,128.906,29.297,7.324,0
1539630459.067,31.738,-648.926,146.484,33.691,6.348,0
1539630459.071,25.391,-614.746,159.180,35.156,18.555,0
1539630459.074,23.926,-823.730,142.578,31.250,30.762,0
1539630459.078,27.344,-945.801,141.113,29.297,68.848,0
1539630459.082,20.508,-740.723,162.598,26.855,53.223,0
1539630459.086,21.973,-625.488,175.293,31.738,7.812,0
1539630459.090,31.250,-829.590,169.922,32.715,30.762,0
1539630459.094,24.902,-923.828,169.922,25.391,-0.977,0
1539630459.098,20.996,-680.176,187.988,25.391,-12.695,0
1539630459.102,27.344,-620.117,185.547,28.320,47.852,0
1539630459.106,26.367,-707.520,178.711,27.832,48.340,0
1539630459.110,21.973,-595.703,189.453,25.879,79.102,0
1539630459.114,23.926,-497.070,195.801,26.367,105.469,0
1539630459.117,25.879,-568.848,190.918,28.320,111.816,0
1539630459.121,27.344,-830.078,179.688,29.785,41.016,0
1539630459.125,26.855,-885.742,198.242,25.391,41.504,0
1539630459.129,25.391,-659.668,214.844,25.391,79.590,0
1539630459.133,29.297,-733.398,186.035,27.344,36.133,0
1539630459.137,32.227,-948.242,173.340,23.926,62.500,0
1539630459.141,28.320,-763.184,196.777,20.996,51.758,0
1539630459.145,25.879,-561.035,200.684,22.461,39.062,0
1539630459.149,24.414,-661.133,196.289,29.297,71.289,0
1539630459.153,26.855,-687.988,200.195,31.250,81.055,0
1539630459.157,28.320,-586.914,200.195,32.715,38.086,0
1539630459.160,26.367,-606.445,192.383,34.180,4.883,0
1539630459.164,29.785,-697.754,179.688,35.156,21.484,0
1539630459.168,30.273,-835.938,167.969,37.598,27.832,0
1539630459.172,23.926,-901.367,166.992,33.203,24.902,0
1539630459.176,23.926,-815.918,170.410,28.320,25.879,0
1539630459.180,27.832,-861.328,160.156,24.414,55.664,0
1539630459.184,28.320,-938.477,162.598,23.926,31.250,0
1539630459.188,25.879,-621.582,178.223,28.320,44.922,0
1539630459.192,28.809,-601.074,153.809,30.762,78.613,0
1539630459.196,33.691,-836.914,134.277,32.227,-1.953,0
1539630459.199,30.762,-704.102,145.996,28.809,4.395,0
1539630459.203,31.738,-553.223,149.902,29.297,33.691,0
1539630459.207,30.762,-669.434,130.859,30.273,17.090,0
1539630459.211,28.320,-778.320,116.699,28.320,2.441,0
1539630459.215,34.180,-876.465,120.605,37.598,-28.809,0
1539630459.219,31.250,-820.801,132.812,43.457,13.184,0
1539630459.223,31.250,-746.094,128.418,42.969,52.734,0
1539630459.227,35.645,-857.910,117.676,40.527,16.113,0
1539630459.231,34.668,-777.832,116.699,33.203,13.672,0
1539630459.235,27.344,-596.191,116.699,29.297,30.762,0
1539630459.239,23.438,-692.871,101.562,24.902,83.496,0
1539630459.242,31.250,-963.379,94.238,18.555,94.238,0
1539630459.246,32.715,-726.074,120.605,22.949,59.570,0
1539630459.250,31.738,-619.629,111.816,30.273,65.918,0
1539630459.254,37.598,-816.406,100.586,29.785,15.625,0
1539630459.258,39.062,-815.918,99.121,27.344,-48.828,0
1539630459.262,37.109,-784.668,97.168,30.273,-33.203,0
1539630459.266,36.133,-793.945,109.375,29.297,67.871,0
1539630459.270,31.738,-913.574,88.867,24.414,41.504,0
1539630459.274,25.879,-893.555,90.820,21.484,-5.371,0
1539630459.278,22.461,-595.215,121.094,24.902,44.434,0
1539630459.282,26.367,-480.957,108.887,29.297,98.633,0
1539630459.285,30.273,-643.066,89.355,29.297,68.848,0
1539630459.289,31.250,-655.762,90.820,34.180,19.531,0
1539630459.293,35.645,-512.695,94.238,38.086,48.340,0
1539630459.297,35.156,-620.117,70.801,39.551,33.691,0
1539630459.301,31.250,-801.758,59.570,40.527,-36.133,0
1539630459.305,26.855,-654.297,83.496,36.621,19.531,0
1539630459.309,27.832,-671.875,87.402,31.738,90.820,0
1539630459.313,32.227,-907.715,68.848,30.762,34.668,0
1539630459.317,27.344,-953.125,63.965,27.344,44.922,0
1539630459.321,23.926,-783.691,82.520,31.250,23.438,0
1539630459.324,29.297,-597.168,86.426,36.621,-3.418,0
1539630459.328,33.203,-662.109,67.383,31.250,54.688,0
1539630459.332,28.809,-707.031,57.129,30.762,59.082,0
1539630459.336,25.391,-563.477,63.477,30.273,48.828,0
1539630459.340,27.344,-493.164,53.711,30.273,84.961,0
1539630459.344,28.320,-636.230,41.992,28.320,64.453,0
1539630459.348,27.344,-711.426,46.875,23.926,31.250,0
1539630459.352,26.367,-590.332,47.363,28.809,47.852,0
1539630459.356,26.367,-742.188,36.621,32.715,14.648,0
1539630459.360,27.344,-954.590,26.855,29.785,33.691,0
1539630459.364,23.438,-884.766,40.527,22.949,97.168,0
1539630459.367,20.020,-698.242,56.152,20.508,88.379,0
1539630459.371,17.578,-668.945,45.410,21.484,24.414,0
1539630459.375,16.113,-698.730,41.504,17.578,52.246,0
1539630459.379,19.043,-606.445,55.664,19.531,85.938,0
1539630459.383,21.973,-489.746,64.453,22.949,80.078,0
1539630459.387,25.879,-545.898,54.199,28.320,89.844,0
1539630459.391,30.273,-664.062,49.805,32.227,68.848,0
1539630459.395,32.715,-614.746,53.223,27.832,39.062,0
1539630459.399,30.762,-619.629,41.504,28.320,-16.602,0
1539630459.403,23.926,-841.797,19.531,29.297,-17.578,0
1539630459.407,22.461,-953.125,29.297,28.320,-17.090,0
1539630459.410,25.391,-770.996,56.641,29.785,-37.109,0
1539630459.414,29.297,-603.027,61.523,32.227,7.324,0
1539630459.418,32.715,-734.375,35.156,34.668,3.906,0
1539630459.422,36.621,-937.988,23.438,34.180,-1.953,0
1539630459.426,33.691,-770.996,60.547,34.180,85.449,0
1539630459.430,24.414,-573.730,65.430,29.297,89.355,0
1539630459.434,23.438,-711.426,43.457,25.391,-14.648,0
1539630459.438,25.391,-807.617,43.945,24.902,-40.527,0
1539630459.442,26.367,-649.414,59.570,22.461,63.965,0
1539630459.446,23.438,-540.039,60.547,20.996,79.102,0
1539630459.449,24.902,-768.066,38.086,23.926,62.500,0
1539630459.453,27.344,-903.320,42.480,27.832,46.875,0
1539630459.457,20.020,-601.562,69.336,25.879,53.711,0
1539630459.461,23.438,-610.840,55.664,29.785,-3.418,0
1539630459.465,29.297,-762.207,47.363,35.645,-13.184,0
1539630459.469,27.344,-695.801,50.293,34.180,14.648,0
1539630459.473,26.855,-612.793,42.480,33.691,-17.578,0
1539630459.477,25.391,-640.625,38.574,29.297,19.531,0
1539630459.481,23.926,-750.488,29.297,24.902,21.973,0
1539630459.485,25.879,-810.547,23.926,28.809,17.578,0
1539630459.489,25.391,-699.219,33.203,29.785,24.414,0
1539630459.492,20.996,-701.172,34.180,23.438,-3.418,0
1539630459.496,18.555,-891.113,26.855,20.020,-4.883,0
1539630459.500,16.113,-961.914,30.273,20.508,-54.688,0
1539630459.504,17.578,-745.605,47.363,17.578,-28.809,0
1539630459.508,21.484,-693.359,32.715,18.555,50.293,0
1539630459.512,18.555,-975.586,8.301,21.484,3.906,0
1539630459.516,20.508,-812.988,28.809,20.996,-18.066,0
1539630459.520,23.926,-536.133,34.180,25.879,38.086,0
1539630459.524,20.508,-617.188,25.879,23.926,67.871,0
1539630459.528,22.949,-651.367,27.832,21.973,76.172,0
1539630459.532,27.344,-589.844,28.809,20.996,4.395,0
1539630459.535,29.297,-549.316,32.715,17.578,17.090,0
1539630459.539,31.738,-696.777,25.879,15.625,5.859,0
1539630459.543,28.809,-956.055,15.137,16.602,-46.387,0
1539630459.547,20.996,-896.973,31.250,13.672,7.812,0
1539630459.551,15.625,-652.344,49.316,13.184,36.133,0
1539630459.555,15.625,-781.738,26.367,14.648,33.691,0
1539630459.559,18.555,-932.617,27.344,12.207,6.836,0
1539630459.563,20.508,-619.141,62.500,16.113,16.113,0
1539630459.567,21.973,-568.848,44.922,19.043,16.113,0
1539630459.571,19.043,-666.992,34.180,16.602,47.852,0
1539630459.574,15.625,-572.266,50.293,19.043,70.801,0
1539630459.578,21.973,-505.859,53.711,23.926,37.598,0
1539630459.582,18.066,-609.375,47.363,27.832,25.879,0
1539630459.586,13.672,-698.242,49.316,27.832,17.578,0
1539630459.590,17.578,-787.598,44.434,26.855,0.977,0
1539630459.594,17.578,-786.621,49.316,25.391,34.180,0
1539630459.598,15.137,-791.504,47.852,26.855,15.625,0
1539630459.602,17.090,-874.512,44.922,26.855,-25.879,0
1539630459.606,17.090,-617.188,62.988,25.391,47.852,0
1539630459.610,15.625,-413.086,60.547,24.414,93.262,0
1539630459.614,23.438,-619.141,41.504,23.926,101.562,0
1539630459.617,29.297,-943.359,38.574,22.461,60.059,0
1539630459.621,26.855,-722.168,70.801,22.461,28.320,0
1539630459.625,28.809,-516.113,70.312,26.855,36.133,0
1539630459.629,31.250,-605.957,55.664,27.344,66.406,0
1539630459.633,30.273,-567.383,51.270,27.344,125.000,0
1539630459.637,36.621,-596.191,46.875,33.203,105.469,0
1539630459.641,41.016,-787.598,47.363,39.551,30.273,0
1539630459.645,34.668,-925.293,40.527,36.133,33.691,0
1539630459.649,39.062,-926.758,52.734,32.715,43.945,0
1539630459.653,43.945,-657.227,80.078,41.504,47.363,0
1539630459.657,37.598,-588.379,71.777,37.109,78.125,0
1539630459.660,23.926,-728.027,56.152,30.762,45.410,0
1539630459.664,19.043,-618.164,62.988,33.203,15.625,0
1539630459.668,26.367,-458.984,67.871,35.156,36.621,0
1539630459.672,25.391,-563.477,52.246,33.203,20.996,0
1539630459.676,26.367,-716.797,42.480,26.367,-17.090,0
1539630459.680,29.785,-582.031,46.387,27.832,18.066,0
1539630459.684,28.809,-707.031,41.016,30.762,-18.555,0
1539630459.688,30.273,-895.996,38.086,30.273,-12.207,0
1539630459.692,32.715,-941.406,42.969,27.832,40.527,0
1539630459.696,28.809,-729.980,70.312,24.414,53.223,0
1539630459.699,25.879,-484.375,77.148,19.531,27.832,0
1539630459.703,23.926,-588.379,64.453,17.090,39.551,0
1539630459.707,22.461,-601.562,65.430,14.160,86.914,0
1539630459.711,19.531,-441.895,71.289,15.625,101.562,0
1539630459.715,20.020,-567.871,60.547,22.461,41.016,0
1539630459.719,25.391,-672.852,66.895,27.832,35.645,0
1539630459.723,25.391,-570.801,75.684,32.715,71.289,0
1539630459.727,28.809,-514.160,70.801,34.668,26.855,0
1539630459.731,32.715,-680.176,66.406,37.598,25.879,0
1539630459.735,31.738,-892.090,47.852,37.109,17.578,0
1539630459.739,29.785,-917.969,47.852,31.738,-60.547,0
1539630459.742,32.227,-618.164,78.125,30.273,12.207,0
1539630459.746,30.273,-451.172,69.824,28.809,88.867,0
1539630459.750,26.855,-572.266,51.270,27.832,91.309,0
1539630459.754,25.391,-557.129,48.828,26.855,73.730,0
1539630459.758,23.926,-480.469,46.387,23.926,34.180,0
1539630459.762,24.902,-562.988,30.273,20.996,35.156,0
1539630459.766,25.879,-712.402,20.996,20.020,4.883,0
1539630459.770,28.320,-588.379,34.180,20.020,43.945,0
1539630459.774,33.203,-615.234,31.250,20.508,41.992,0
1539630459.778,33.691,-861.816,24.414,20.996,13.184,0
1539630459.782,35.156,-888.672,30.273,19.531,9.766,0
1539630459.785,35.156,-657.715,53.223,20.996,16.602,0
1539630459.789,36.133,-492.676,55.176,27.832,37.598,0
1539630459.793,39.062,-676.270,31.250,35.156,25.391,0
1539630459.797,32.227,-950.684,27.344,33.203,19.043,0
1539630459.801,22.461,-749.023,56.152,33.691,7.324,0
1539630459.805,22.949,-515.625,59.570,38.574,20.996,0
1539630459.809,27.832,-585.938,53.711,35.645,81.055,0
1539630459.813,23.926,-630.371,52.246,36.133,69.336,0
1539630459.817,22.461,-557.617,58.105,39.062,-5.371,0
1539630459.821,26.855,-516.113,57.129,40.039,15.625,0
1539630459.824,23.926,-650.879,41.992,34.180,64.453,0
1539630459.828,17.578,-780.762,39.062,28.809,87.891,0
1539630459.832,18.555,-781.738,41.504,26.367,41.504,0
1539630459.836,18.066,-637.695,46.387,19.043,18.555,0
1539630459.840,18.066,-793.457,33.203,20.020,22.461,0
1539630459.844,24.414,-853.027,46.875,17.090,37.109,0
1539630459.848,22.949,-526.855,65.918,13.672,42.480,0
1539630459.852,23.438,-541.504,50.781,18.555,21.973,0
1539630459.856,24.414,-642.090,46.875,19.043,13.184,0
1539630459.860,20.508,-586.426,53.711,17.578,20.020,0
1539630459.864,21.973,-556.641,57.617,22.461,46.387,0
1539630459.867,25.879,-621.094,50.293,29.785,35.156,0
1539630459.871,25.391,-765.625,41.016,33.203,29.785,0
1539630459.875,27.344,-769.043,45.410,28.809,70.312,0
1539630459.879,27.344,-539.551,56.641,26.367,99.121,0
1539630459.883,23.926,-558.105,40.039,28.320,107.422,0
1539630459.887,24.902,-936.035,18.066,29.297,64.453,0
1539630459.891,21.484,-808.594,51.758,25.879,12.695,0
1539630459.895,20.996,-440.918,70.312,28.320,81.543,0
1539630459.899,26.367,-512.207,49.805,33.203,114.746,0
1539630459.903,29.785,-624.512,37.109,30.273,49.316,0
1539630459.907,28.809,-547.852,44.434,28.320,1.953,0
1539630459.910,25.879,-517.578,42.969,29.297,14.160,0
1539630459.914,26.367,-602.539,30.273,26.855,28.809,0
1539630459.918,28.320,-753.418,25.391,25.391,36.133,0
1539630459.922,27.832,-760.254,39.062,24.414,68.848,0
1539630459.926,22.949,-614.258,52.734,18.066,53.711,0
1539630459.930,20.508,-801.758,29.297,10.742,9.766,0
1539630459.934,20.020,-919.434,38.086,10.742,5.371,0
1539630459.938,20.508,-595.703,68.848,15.137,8.301,0
1539630459.942,23.438,-516.602,55.176,15.137,24.414,0
1539630459.946,21.973,-716.797,42.480,19.043,48.340,0
1539630459.949,20.996,-750.977,50.293,26.855,34.668,0
1539630459.953,23.926,-539.062,59.082,33.691,22.949,0
1539630459.957,24.902,-543.945,41.016,37.598,44.434,1
1539630459.961,27.832,-631.836,31.250,36.621,63.477,0
1539630459.965,26.855,-669.922,31.738,34.180,66.895,0
1539630459.969,23.438,-769.043,28.809,38.574,17.090,0
1539630459.973,24.414,-859.375,22.949,38.086,-14.160,0
1539630459.977,27.832,-943.848,27.344,35.156,48.828,0
1539630459.981,29.785,-693.848,53.223,33.691,86.914,0
1539630459.985,27.832,-485.352,49.805,30.273,25.879,0
1539630459.989,25.879,-615.723,42.480,31.250,21.484,0
1539630459.992,28.809,-625.977,47.363,29.297,62.988,0
1539630459.996,29.785,-462.891,54.688,27.344,74.219,0
1539630460.000,29.785,-414.062,52.734,27.344,85.938,0
1539630460.004,30.762,-579.102,38.086,23.926,61.523,0
1539630460.008,37.109,-714.355,29.297,24.414,-13.184,0
1539630460.012,33.691,-740.234,33.691,23.438,-20.996,0
1539630460.016,22.949,-823.242,40.527,18.555,5.859,0
1539630460.020,20.508,-937.500,18.555,15.137,-40.039,0
1539630460.024,17.090,-883.301,39.551,6.836,-29.297,0
1539630460.028,12.207,-621.582,76.172,1.465,-8.789,0
1539630460.032,9.766,-557.617,58.105,4.395,-5.859,0
1539630460.035,12.695,-619.629,50.781,14.648,59.570,0
1539630460.039,18.066,-541.992,55.664,19.531,80.078,0
1539630460.043,19.531,-492.188,48.828,20.020,21.484,0
1539630460.047,25.879,-687.012,28.320,28.320,-65.430,0
1539630460.051,26.367,-777.832,26.855,33.691,-46.875,0
1539630460.055,23.926,-586.426,41.992,31.250,38.086,0
1539630460.059,27.344,-617.188,41.016,28.809,71.289,0
1539630460.063,23.438,-837.402,31.738,32.715,13.672,0
1539630460.067,24.414,-965.820,37.598,28.320,-64.453,0
1539630460.071,25.879,-764.648,71.777,23.438,-6.348,0
1539630460.074,21.484,-564.453,74.707,27.344,45.410,0
1539630460.078,21.973,-653.809,59.570,24.902,44.922,0
1539630460.082,26.367,-692.383,60.547,27.832,21.484,0
1539630460.086,24.414,-525.879,69.824,33.203,23.438,0
1539630460.090,25.879,-440.918,59.082,29.785,58.105,0
1539630460.094,26.855,-590.820,44.434,25.391,30.273,0
1539630460.098,24.414,-605.957,50.293,22.949,67.871,0
1539630460.102,25.879,-473.633,48.828,27.344,92.285,0
1539630460.106,25.879,-692.871,33.691,34.668,-9.277,0
1539630460.110,24.902,-930.176,26.855,30.762,24.902,0
1539630460.114,26.367,-904.785,31.738,26.855,53.223,0
1539630460.117,22.461,-631.836,47.363,27.344,12.207,0
1539630460.121,18.555,-668.945,28.809,29.297,3.418,0
1539630460.125,17.090,-832.520,25.391,23.438,-15.137,0
1539630460.129,16.602,-610.840,43.945,11.719,41.016,0
1539630460.133,18.066,-445.312,40.527,10.742,63.477,0
1539630460.137,18.555,-524.902,36.621,11.230,48.828,0
1539630460.141,16.602,-644.531,37.109,13.184,38.574,0
1539630460.145,19.531,-584.961,43.945,13.184,24.414,0
1539630460.149,18.066,-464.355,51.758,11.719,65.918,0
1539630460.153,16.602,-637.207,37.109,18.066,89.844,0
1539630460.157,18.555,-962.402,29.297,19.531,34.668,0
1539630460.160,16.113,-833.496,55.176,18.555,-16.113,0
1539630460.164,20.996,-557.617,62.988,27.832,-5.371,0
1539630460.168,25.391,-662.109,43.457,36.133,1.953,0
1539630460.172,22.461,-681.641,43.945,37.598,29.297,0
1539630460.176,23.926,-587.891,46.875,39.551,41.504,0
1539630460.180,23.926,-644.531,39.062,39.551,34.668,0
1539630460.184,19.531,-631.836,42.480,32.715,51.270,0
1539630460.188,18.555,-640.137,37.109,28.809,22.949,0
1539630460.192,17.090,-541.992,43.945,30.273,29.785,0
1539630460.196,17.578,-525.391,43.457,24.902,33.691,0
1539630460.199,21.484,-680.664,31.738,22.949,52.246,0
1539630460.203,29.785,-794.434,31.250,27.344,68.359,0
1539630460.207,30.273,-697.754,35.645,28.809,6.348,0
1539630460.211,23.438,-531.250,32.715,29.785,21.973,0
1539630460.215,20.020,-775.391,12.695,30.273,66.895,0
1539630460.219,18.066,-821.289,31.250,28.320,99.609,0
1539630460.223,21.484,-509.766,49.316,28.809,65.430,0
1539630460.227,21.484,-556.152,32.715,25.391,25.391,0
1539630460.231,17.578,-583.496,35.156,23.926,83.008,0
1539630460.235,21.973,-595.703,36.133,26.367,84.961,0
1539630460.239,22.461,-601.074,32.227,24.902,68.848,0
1539630460.242,20.020,-569.824,29.297,20.996,74.707,0
1539630460.246,24.902,-692.871,23.926,19.531,104.980,0
1539630460.250,22.949,-730.957,26.855,17.090,108.398,0
1539630460.254,18.555,-571.289,37.109,13.184,72.266,0
1539630460.258,21.484,-637.695,18.555,14.160,37.598,0
1539630460.262,23.926,-929.688,2.441,13.672,40.039,0
1539630460.266,21.973,-757.324,37.109,11.719,20.996,0
1539630460.270,22.461,-490.234,48.828,20.508,31.738,0
1539630460.274,24.414,-645.020,30.273,27.344,11.230,0
1539630460.278,24.414,-712.891,26.855,24.902,-7.324,0
1539630460.282,19.531,-504.883,41.016,25.391,64.453,0
1539630460.285,15.625,-543.457,42.969,25.879,33.691,0
1539630460.289,18.555,-647.461,49.805,24.902,26.855,0
1539630460.293,20.020,-766.602,42.969,24.902,46.875,0
1539630460.297,21.973,-796.875,45.410,28.809,26.367,0
1539630460.301,17.578,-757.324,56.641,32.227,41.016,0
1539630460.305,19.531,-895.996,33.691,29.785,16.602,0
1539630460.309,24.414,-900.391,39.551,23.926,-21.484,0
1539630460.313,21.973,-593.750,72.266,21.973,1.465,0
1539630460.317,20.996,-515.137,60.547,25.391,12.207,0
1539630460.321,21.484,-688.965,43.457,26.367,-30.762,0
1539630460.324,22.949,-629.395,45.898,24.414,-20.020,0
1539630460.328,25.879,-492.676,47.852,26.855,16.602,0
1539630460.332,26.367,-535.645,39.062,32.715,60.547,0
1539630460.336,28.320,-607.422,32.227,39.062,60.547,0
1539630460.340,31.250,-709.473,28.320,38.574,33.691,0
1539630460.344,34.180,-757.812,32.715,35.645,13.184,0
1539630460.348,30.762,-687.012,31.738,33.203,55.664,0
1539630460.352,26.367,-874.023,16.602,25.391,71.777,0
1539630460.356,29.297,-805.176,41.992,23.926,-20.996,0
1539630460.360,25.391,-524.902,56.152,25.391,-8.789,0
1539630460.364,26.367,-581.543,47.852,25.391,51.758,0
1539630460.367,30.273,-620.605,43.945,24.414,59.570,0
1539630460.371,25.879,-526.367,36.621,21.973,6.348,0
1539630460.375,25.879,-522.461,30.762,25.391,-10.254,0
1539630460.379,26.367,-593.750,34.668,25.879,24.414,0
1539630460.383,25.391,-587.891,38.574,24.902,45.898,0
1539630460.387,24.414,-663.574,35.645,25.879,54.688,0
1539630460.391,21.484,-666.504,45.898,26.855,52.734,0
1539630460.395,18.555,-776.855,33.203,27.832,56.641,0
1539630460.399,19.043,-897.461,35.156,26.367,51.270,0
1539630460.403,21.973,-539.551,74.707,30.273,64.453,0
1539630460.407,25.391,-434.570,61.035,33.203,77.148,0
1539630460.410,27.344,-644.043,39.062,32.227,42.969,0
1539630460.414,22.949,-630.371,48.828,27.832,24.414,0
1539630460.418,20.508,-483.398,50.781,23.438,16.602,0
1539630460.422,22.949,-548.340,37.109,25.391,30.273,0
1539630460.426,21.973,-637.695,33.691,18.066,51.758,0
1539630460.430,18.066,-610.352,40.039,11.230,5.371,0
1539630460.434,17.090,-662.109,39.551,20.020,15.137,0
1539630460.438,19.043,-794.922,33.691,24.414,52.246,0
1539630460.442,18.066,-950.684,29.785,20.996,49.805,0
1539630460.446,16.602,-791.504,49.316,17.578,26.367,0
1539630460.449,20.508,-532.227,52.734,15.625,3.418,0
1539630460.453,23.926,-579.590,41.504,20.020,54.199,0
1539630460.457,21.973,-683.105,37.598,24.414,12.207,0
1539630460.461,20.996,-579.590,43.457,24.902,-26.367,0
1539630460.465,19.531,-496.094,37.598,21.484,34.180,0
1539630460.469,18.555,-657.715,23.438,20.508,15.625,0
1539630460.473,16.113,-680.176,28.320,26.367,5.859,0
1539630460.477,20.508,-531.738,30.273,27.344,32.227,0
1539630460.481,25.879,-674.805,13.184,28.320,15.625,0
1539630460.485,23.438,-936.523,-4.395,24.414,30.273,0
1539630460.489,21.484,-887.207,13.184,17.578,42.480,0
1539630460.492,19.531,-600.586,38.574,16.602,34.180,0
1539630460.496,16.113,-523.926,27.832,18.555,69.336,0
1539630460.500,20.996,-729.980,16.602,23.438,20.020,0
1539630460.504,21.484,-768.066,25.391,20.996,-40.039,0
1539630460.508,18.066,-516.113,38.574,18.555,24.414,0
1539630460.512,19.531,-536.621,27.344,23.438,34.668,0
1539630460.516,20.020,-656.738,20.508,24.414,25.879,0
1539630460.520,19.531,-538.086,35.156,26.855,48.340,0
1539630460.524,19.043,-514.648,38.086,25.879,47.363,0
1539630460.528,20.020,-763.184,19.531,23.438,58.594,0
1539630460.532,20.996,-896.484,20.996,22.461,48.340,0
1539630460.535,20.996,-685.059,47.852,21.973,23.438,0
1539630460.539,17.578,-465.332,52.734,24.414,37.598,0
1539630460.543,19.043,-670.410,23.926,18.066,8.301,0
1539630460.547,22.949,-851.074,23.926,17.578,-13.672,0
1539630460.551,24.414,-561.035,49.316,23.926,45.410,0
1539630460.555,23.926,-450.195,41.504,24.414,49.805,0
1539630460.559,25.391,-537.109,37.109,24.414,76.660,0
1539630460.563,29.297,-615.723,38.086,22.461,42.969,0
1539630460.567,25.879,-541.504,44.434,23.438,23.438,0
1539630460.571,22.461,-468.262,40.527,24.414,64.453,0
1539630460.574,22.949,-693.359,31.250,22.461,32.715,0
1539630460.578,24.902,-875.488,38.574,23.926,-1.953,0
1539630460.582,22.949,-748.047,54.199,24.902,25.879,0
1539630460.586,22.949,-642.090,51.758,21.973,22.461,0
1539630460.590,29.297,-824.219,29.297,17.090,15.625,0
1539630460.594,27.832,-859.375,44.434,16.602,33.691,0
1539630460.598,21.484,-508.789,76.660,15.625,65.430,0
1539630460.602,27.832,-460.449,58.594,15.137,83.496,0
1539630460.606,31.738,-606.445,44.922,21.484,38.086,0
1539630460.610,32.227,-612.793,57.129,23.438,-20.996,0
1539630460.614,32.715,-548.340,65.918,22.949,-21.973,0
1539630460.617,32.715,-585.449,62.012,30.273,22.949,0
1539630460.621,36.621,-770.020,48.340,31.738,35.645,0
1539630460.625,31.738,-823.730,51.270,24.414,41.016,0
1539630460.629,24.414,-640.137,70.801,21.484,18.555,0
1539630460.633,19.531,-661.621,60.547,19.531,17.578,0
1539630460.637,18.555,-919.434,40.039,15.137,23.438,0
1539630460.641,18.066,-837.891,53.223,14.648,5.371,0
1539630460.645,15.137,-649.414,60.059,19.043,40.039,0
1539630460.649,12.695,-588.867,59.082,18.555,94.238,0
1539630460.653,20.020,-628.906,52.734,18.555,26.855,0
1539630460.657,23.438,-547.363,61.523,19.531,-10.742,0
1539630460.660,23.438,-496.582,56.152,15.137,19.531,0
1539630460.664,25.879,-603.027,31.738,8.789,8.789,0
1539630460.668,21.973,-756.348,21.484,8.301,15.137,0
1539630460.672,21.973,-742.188,35.645,11.230,62.988,0
1539630460.676,26.855,-535.156,52.246,9.766,88.379,0
1539630460.680,26.367,-730.957,23.438,7.324,62.500,0
1539630460.684,22.949,-878.906,18.555,10.254,67.383,0
1539630460.688,24.902,-516.602,46.875,13.184,68.359,0
1539630460.692,27.832,-490.723,26.367,17.578,25.391,0
1539630460.696,27.344,-625.488,10.742,19.043,43.457,0
1539630460.699,30.273,-646.973,26.367,21.973,46.875,0
1539630460.703,31.738,-592.285,37.598,28.809,2.930,0
1539630460.707,26.367,-706.543,23.926,29.785,-18.066,0
1539630460.711,21.973,-743.652,24.414,29.785,2.930,0
1539630460.715,21.484,-699.219,28.809,28.320,13.672,0
1539630460.719,25.391,-788.086,32.227,33.203,-26.367,0
1539630460.723,23.926,-826.660,35.156,37.598,-5.859,0
1539630460.727,18.066,-934.082,28.320,29.785,29.785,0
1539630460.731,19.043,-687.988,56.152,27.344,50.781,0
1539630460.735,20.996,-403.320,63.477,32.227,59.082,0
1539630460.739,23.926,-484.375,45.898,32.715,91.309,0
1539630460.742,31.250,-546.387,44.922,35.645,78.125,0
1539630460.746,38.574,-447.266,56.152,39.551,39.062,0
1539630460.750,34.180,-416.992,51.270,34.180,39.062,0
1539630460.754,25.879,-561.523,30.762,24.414,6.348,0
1539630460.758,25.879,-655.762,28.320,20.508,51.758,0
1539630460.762,27.344,-672.852,28.320,20.508,64.453,0
1539630460.766,31.738,-725.586,23.438,19.043,41.016,0
1539630460.770,37.598,-883.301,7.324,18.066,1.465,0
1539630460.774,30.273,-871.094,21.484,14.648,0.488,0
1539630460.778,24.414,-532.227,51.758,18.066,52.246,0
1539630460.782,21.973,-492.676,30.762,26.855,0.488,0
1539630460.785,20.508,-631.836,19.531,31.738,-2.930,0
1539630460.789,20.996,-524.414,37.598,32.715,55.176,0
1539630460.793,15.137,-426.270,40.527,28.320,40.039,0
1539630460.797,11.719,-513.672,21.973,28.320,42.480,0
1539630460.801,14.648,-600.098,16.602,31.738,44.922,0
1539630460.805,17.090,-555.176,31.738,26.855,4.883,0
1539630460.809,20.508,-666.504,31.250,27.344,-19.043,0
1539630460.813,26.367,-810.059,21.484,32.715,41.016,0
1539630460.817,29.297,-928.223,13.672,30.762,87.402,0
1539630460.821,23.438,-701.660,45.898,30.273,100.586,0
1539630460.824,22.949,-410.156,57.617,30.273,71.777,0
1539630460.828,28.809,-527.344,37.109,30.273,76.172,0
1539630460.832,27.832,-616.699,34.668,27.344,64.941,0
1539630460.836,24.414,-559.082,55.176,23.438,-21.484,0
1539630460.840,22.461,-514.160,67.871,24.902,-16.602,0
1539630460.844,24.414,-589.355,55.664,23.438,20.996,0
1539630460.848,25.879,-614.746,55.176,17.090,32.227,0
1539630460.852,28.809,-503.418,58.105,13.672,40.527,0
1539630460.856,29.297,-604.980,48.828,16.602,49.316,0
1539630460.860,25.879,-852.539,30.762,10.742,104.492,0
1539630460.864,31.250,-928.223,34.180,2.930,46.875,0
1539630460.867,31.250,-595.703,68.848,8.301,25.391,0
1539630460.871,29.297,-434.570,64.941,14.160,119.141,0
1539630460.875,28.809,-632.324,47.852,15.625,79.590,0
1539630460.879,21.484,-580.566,56.152,20.508,46.875,0
1539630460.883,16.113,-403.320,59.082,26.367,85.938,0
1539630460.887,16.113,-487.793,33.203,29.297,61.035,0
1539630460.891,13.184,-666.504,24.414,29.785,14.160,0
1539630460.895,13.184,-588.379,35.645,24.902,23.438,0
1539630460.899,16.602,-516.602,27.344,26.367,19.531,0
1539630460.903,17.578,-715.820,25.879,29.785,25.391,0
1539630460.907,24.414,-785.645,42.480,27.344,28.809,0
1539630460.910,35.156,-604.492,54.199,27.832,15.625,0
1539630460.914,35.156,-513.184,47.852,27.344,24.414,0
1539630460.918,29.297,-688.477,19.043,26.855,56.641,0
1539630460.922,33.691,-969.727,14.648,25.879,46.387,0
1539630460.926,41.504,-741.699,53.711,25.391,23.438,0
1539630460.930,38.086,-573.730,52.734,24.902,34.180,0
1539630460.934,37.598,-742.676,39.062,20.996,64.941,0
1539630460.938,34.668,-666.504,45.898,12.695,47.363,0
1539630460.942,29.785,-565.918,47.852,5.371,-32.715,0
1539630460.946,28.809,-527.832,49.316,1.953,-12.695,0
1539630460.949,21.973,-703.613,34.180,-2.930,46.875,0
1539630460.953,13.672,-947.754,23.438,-6.836,-20.508,0
1539630460.957,11.230,-722.168,42.480,-4.883,-26.855,0
1539630460.961,9.766,-486.816,42.969,0.000,34.668,0
1539630460.965,7.812,-711.914,23.926,7.812,61.523,0
1539630460.969,6.348,-803.223,32.715,12.207,16.113,0
1539630460.973,3.418,-529.297,44.922,16.602,1.953,0
1539630460.977,2.441,-500.977,36.133,25.391,41.504,0
1539630460.981,5.371,-685.547,25.391,30.762,-31.738,0
1539630460.985,6.836,-621.582,39.062,34.668,-32.715,0
1539630460.989,8.301,-507.324,44.434,37.109,63.477,0
1539630460.992,10.254,-639.648,27.344,38.574,32.715,0
1539630460.996,19.531,-817.871,15.137,43.457,-22.461,0
1539630461.000,29.785,-834.961,26.367,47.852,4.883,0
1539630461.004,33.203,-562.500,50.293,49.805,60.059,0
1539630461.008,40.039,-594.238,23.926,47.852,47.852,0
1539630461.012,43.945,-954.102,-1.953,47.363,13.672,0
1539630461.016,41.504,-715.332,41.016,48.340,46.387,0
1539630461.020,40.039,-420.410,51.270,41.992,50.781,0
1539630461.024,43.457,-548.828,37.109,38.574,58.105,0
1539630461.028,41.992,-597.168,37.598,31.738,69.336,0
1539630461.032,34.180,-507.324,38.086,20.996,16.113,0
1539630461.035,25.391,-450.684,40.039,16.113,40.039,0
1539630461.039,15.625,-581.543,31.738,8.789,16.602,0
1539630461.043,14.160,-734.863,33.691,3.906,41.016,0
1539630461.047,-0.977,-755.859,41.016,-16.602,58.105,0
1539630461.051,-24.902,-767.578,47.363,-40.039,41.992,0
1539630461.055,-47.363,-897.949,35.156,-59.082,44.434,0
1539630461.059,-63.477,-884.766,42.969,-84.473,34.668,0
1539630461.063,-72.754,-547.852,72.266,-104.980,72.754,0
1539630461.067,-88.379,-485.352,48.828,-119.141,69.824,0
1539630461.071,-97.168,-648.926,26.855,-124.023,40.039,0
1539630461.074,-104.980,-623.047,29.785,-125.977,19.531,0
1539630461.078,-112.305,-518.066,16.113,-125.977,23.438,0
1539630461.082,-117.188,-618.164,-10.254,-120.605,11.230,0
1539630461.086,-114.746,-747.559,-14.160,-106.445,-11.719,0
1539630461.090,-115.723,-707.031,-6.836,-99.121,55.664,0
1539630461.094,-112.793,-790.039,-8.301,-91.309,12.695,0
1539630461.098,-101.074,-891.113,-10.742,-76.660,-17.578,0
1539630461.102,-89.355,-939.941,-3.906,-69.336,50.293,0
1539630461.106,-82.031,-789.062,23.926,-58.105,64.453,0
1539630461.110,-77.637,-545.898,27.344,-47.852,27.344,0
1539630461.114,-68.848,-581.543,18.066,-38.574,27.344,0
1539630461.117,-55.664,-655.762,24.414,-26.367,7.812,0
1539630461.121,-41.992,-495.605,29.785,-20.508,2.930,0
1539630461.125,-31.250,-437.500,18.555,-16.602,48.340,0
1539630461.129,-20.020,-566.406,6.348,-3.906,58.594,0
1539630461.133,-2.930,-544.434,11.230,2.930,62.012,0
1539630461.137,6.836,-619.629,7.812,0.000,9.277,0
1539630461.141,12.695,-704.590,13.184,3.906,44.434,0
1539630461.145,21.484,-832.031,-4.395,7.812,76.660,0
1539630461.149,27.832,-879.395,0.000,7.812,16.113,0
1539630461.153,31.738,-481.445,43.945,12.695,60.547,0
1539630461.157,41.992,-311.523,31.738,23.926,112.793,0
1539630461.160,52.246,-521.484,7.812,26.855,39.551,0
1539630461.164,54.199,-597.656,20.508,27.832,37.109,0
1539630461.168,51.758,-452.637,38.086,34.668,44.434,0
1539630461.172,52.734,-445.312,33.691,36.133,32.227,0
1539630461.176,58.105,-500.977,32.715,37.598,79.102,0
1539630461.180,61.035,-389.648,47.852,38.086,100.586,0
1539630461.184,62.012,-524.414,38.086,40.527,26.367,0
1539630461.188,61.035,-735.352,26.367,43.457,35.645,0
1539630461.192,65.918,-883.789,30.762,46.875,91.797,0
1539630461.196,67.383,-705.566,59.570,47.852,56.152,0
1539630461.199,68.848,-376.953,71.289,47.852,62.500,0
1539630461.203,70.801,-500.488,56.152,53.711,54.688,0
1539630461.207,68.359,-580.078,62.012,54.199,38.086,0
1539630461.211,66.406,-445.312,68.359,51.270,28.320,0
1539630461.215,64.941,-365.723,61.035,55.176,60.059,0
1539630461.219,64.941,-521.973,45.410,59.082,56.152,0
1539630461.223,59.082,-684.570,43.945,58.594,11.719,0
1539630461.227,56.641,-538.086,56.641,57.129,22.949,0
1539630461.231,57.129,-521.484,49.316,56.641,61.523,0
1539630461.235,55.176,-786.133,24.902,56.641,81.055,0
1539630461.239,55.664,-875.977,28.320,55.664,82.520,0
1539630461.242,59.082,-501.953,64.941,54.688,93.750,0
1539630461.246,60.547,-346.680,57.129,56.152,103.027,0
1539630461.250,57.617,-509.277,35.156,58.105,72.266,0
1539630461.254,54.688,-540.039,44.434,59.082,26.367,0
1539630461.258,54.688,-466.309,48.828,58.105,-1.465,0
1539630461.262,55.176,-508.789,49.805,58.105,20.020,0
1539630461.266,54.199,-528.320,58.105,59.082,92.285,0
1539630461.270,45.410,-476.562,59.570,58.594,53.711,0
1539630461.274,46.875,-452.148,55.664,56.152,20.020,0
1539630461.278,49.805,-645.508,38.086,54.688,47.363,0
1539630461.282,45.898,-954.102,23.926,56.152,11.230,0
1539630461.285,48.828,-752.441,53.223,60.059,18.555,0
1539630461.289,49.805,-437.012,64.453,63.965,41.504,0
1539630461.293,49.805,-572.266,43.457,66.406,28.320,1
1539630461.297,51.270,-649.414,40.527,70.312,36.133,0
1539630461.301,50.293,-513.184,42.480,69.824,10.254,0
1539630461.305,45.898,-469.238,32.715,65.918,10.742,0
1539630461.309,40.527,-518.555,24.414,62.500,71.289,0
1539630461.313,38.086,-596.680,21.973,57.129,43.457,0
1539630461.317,41.016,-525.391,30.273,51.270,20.508,0
1539630461.321,36.133,-530.762,29.785,45.410,-6.348,0
1539630461.324,35.156,-681.152,23.926,41.016,36.621,0
1539630461.328,40.527,-866.211,24.414,37.109,4.883,0
1539630461.332,39.062,-713.867,47.852,34.668,-26.855,0
1539630461.336,37.109,-575.195,49.316,35.645,22.949,0
1539630461.340,39.551,-856.445,29.785,35.645,20.996,0
1539630461.344,42.480,-836.914,56.641,31.738,35.645,0
1539630461.348,39.551,-493.164,80.566,32.227,53.711,0
1539630461.352,33.691,-448.242,68.848,41.016,74.707,0
1539630461.356,32.227,-593.750,53.223,46.387,36.621,0
1539630461.360,32.227,-590.332,54.199,43.945,-6.348,0
1539630461.364,33.691,-506.836,66.406,43.945,-1.465,0
1539630461.367,33.691,-593.750,63.477,41.504,-15.137,0
1539630461.371,32.715,-767.578,53.711,38.574,25.879,0
1539630461.375,34.668,-746.094,66.895,38.574,33.691,0
1539630461.379,37.598,-532.715,87.891,40.527,24.414,0
1539630461.383,41.992,-599.609,70.312,45.898,50.781,0
1539630461.387,43.457,-691.895,59.082,47.852,78.125,0
1539630461.391,49.805,-506.836,71.777,46.387,64.941,0
1539630461.395,54.688,-548.828,66.406,48.828,27.344,0
1539630461.399,61.523,-820.801,44.922,54.688,28.320,0
1539630461.403,65.430,-947.266,41.992,49.805,32.227,0
1539630461.407,64.453,-615.723,71.777,47.363,85.938,0
1539630461.410,62.012,-390.137,65.430,48.828,106.934,0
1539630461.414,59.570,-560.547,36.133,41.504,67.871,0
1539630461.418,60.059,-702.637,23.926,41.504,79.590,0
1539630461.422,52.246,-755.371,24.902,40.527,37.598,0
1539630461.426,45.410,-658.203,35.156,38.574,10.254,0
1539630461.430,44.434,-760.254,10.254,36.621,37.109,0
1539630461.434,43.457,-870.117,4.395,29.297,45.898,0
1539630461.438,41.504,-541.016,33.203,27.344,31.738,0
1539630461.442,36.621,-467.285,19.531,28.320,29.785,0
1539630461.446,33.203,-599.121,8.789,26.367,39.062,0
1539630461.449,35.156,-505.859,24.902,24.902,75.684,0
1539630461.453,31.250,-450.195,31.250,25.879,101.562,0
1539630461.457,28.809,-588.867,26.367,28.809,37.109,0
1539630461.461,30.273,-647.949,27.832,31.738,-6.348,0
1539630461.465,34.180,-670.898,33.691,36.621,48.340,0
1539630461.469,39.062,-610.840,46.875,39.551,102.539,0
1539630461.473,39.062,-632.324,39.551,39.551,43.945,0
1539630461.477,41.504,-915.039,35.156,34.180,-3.906,0
1539630461.481,43.945,-722.656,84.961,30.762,24.414,0
1539630461.485,41.992,-396.484,100.586,37.109,47.363,0
1539630461.489,39.062,-500.977,71.777,36.133,63.477,0
1539630461.492,36.133,-584.961,65.918,24.902,52.734,0
1539630461.496,35.156,-495.605,77.637,21.973,-1.953,0
1539630461.500,35.156,-424.805,82.520,23.926,30.273,0
1539630461.504,31.250,-442.871,84.961,23.926,106.934,0
1539630461.508,30.273,-502.930,74.707,23.926,70.312,0
1539630461.512,35.645,-662.598,53.711,26.855,-25.879,0
1539630461.516,37.109,-784.180,53.223,31.738,0.488,0
1539630461.520,32.227,-872.559,35.645,28.809,21.484,0
1539630461.524,30.273,-905.273,33.203,26.367,-30.762,0
1539630461.528,26.855,-583.008,66.895,29.297,10.742,0
1539630461.532,26.367,-423.828,62.012,30.273,63.965,0
1539630461.535,31.250,-562.500,44.922,32.715,37.109,0
1539630461.539,29.785,-523.438,48.828,29.785,42.480,0
1539630461.543,27.832,-393.555,56.152,26.855,51.758,0
1539630461.547,33.203,-491.211,44.434,25.391,40.527,0
1539630461.551,36.133,-588.867,41.016,25.879,56.152,0
1539630461.555,30.273,-562.988,43.457,28.320,-2.441,0
1539630461.559,26.855,-628.906,47.363,26.855,6.836,0
1539630461.563,23.438,-753.418,47.363,27.344,51.270,0
1539630461.567,20.020,-958.496,34.180,28.320,2.930,0
1539630461.571,20.996,-892.090,59.082,25.879,19.531,0
1539630461.574,21.484,-624.512,71.777,25.879,-21.484,0
1539630461.578,20.996,-685.059,47.852,26.855,-75.195,0
1539630461.582,21.973,-739.746,45.410,30.762,-57.129,0
1539630461.586,20.508,-553.223,59.570,31.250,-38.574,0
1539630461.590,18.066,-459.961,62.012,29.785,-3.418,0
1539630461.594,17.090,-518.555,55.176,27.832,39.551,0
1539630461.598,14.160,-554.199,51.270,23.926,31.738,0
1539630461.602,13.672,-466.309,57.617,25.391,24.414,0
1539630461.606,13.672,-545.410,55.176,30.273,76.172,0
1539630461.610,17.578,-833.984,33.203,26.855,39.062,0
1539630461.614,20.020,-902.832,50.781,23.438,0.000,0
1539630461.617,23.438,-566.406,95.703,28.320,48.828,0
1539630461.621,20.508,-394.531,89.844,30.273,52.734,0
1539630461.625,12.207,-627.441,67.383,31.250,19.531,0
1539630461.629,13.184,-761.719,69.824,30.762,-10.742,0
1539630461.633,12.695,-506.836,90.820,27.344,23.438,0
1539630461.637,11.230,-415.527,81.055,26.855,77.148,0
1539630461.641,13.184,-566.895,62.500,26.367,37.109,0
1539630461.645,19.043,-523.926,65.430,24.902,27.832,0
1539630461.649,19.531,-425.781,66.895,26.367,43.945,0
1539630461.653,20.996,-596.191,45.410,30.762,58.594,0
1539630461.657,21.484,-908.691,28.809,28.320,67.871,0
1539630461.660,20.020,-818.848,50.293,25.879,-2.441,0
1539630461.664,24.902,-487.305,69.824,31.250,15.625,0
1539630461.668,29.785,-549.316,53.223,35.156,47.852,0
1539630461.672,26.367,-661.133,36.621,36.133,7.324,0
1539630461.676,21.484,-506.348,42.969,31.250,19.043,0
1539630461.680,27.344,-453.125,37.598,31.250,23.438,0
1539630461.684,33.691,-622.559,21.973,33.691,-11.230,0
1539630461.688,36.621,-764.160,19.531,34.180,-35.156,0
1539630461.692,38.086,-610.352,31.250,31.738,-8.789,0
1539630461.696,39.062,-470.703,39.551,30.273,26.367,0
1539630461.699,36.133,-749.512,13.184,31.738,13.672,0
1539630461.703,28.809,-905.762,17.578,26.855,0.977,0
1539630461.707,20.508,-637.207,49.805,23.438,-27.344,0
1539630461.711,20.020,-506.348,48.828,22.949,9.277,0
1539630461.715,25.879,-538.086,49.805,22.949,87.891,0
1539630461.719,21.484,-506.348,56.152,23.926,100.098,0
1539630461.723,16.113,-424.805,54.688,25.391,62.500,0
1539630461.727,14.648,-514.648,36.133,26.855,23.926,0
1539630461.731,12.207,-641.602,26.855,28.809,39.062,0
1539630461.735,11.230,-545.898,44.434,26.367,69.336,0
1539630461.739,14.160,-419.434,54.688,21.484,73.242,0
1539630461.742,19.043,-589.844,34.180,20.996,30.273,0
1539630461.746,23.926,-851.562,16.602,22.461,-17.090,0
1539630461.750,26.367,-860.352,23.438,25.879,9.766,0
1539630461.754,25.391,-691.895,39.551,25.879,27.344,0
1539630461.758,29.785,-667.969,28.809,23.926,32.227,0
1539630461.762,30.273,-928.711,13.184,23.926,44.434,0
1539630461.766,24.414,-708.008,44.922,20.020,65.918,0
1539630461.770,27.832,-313.477,53.223,19.531,140.137,0
1539630461.774,25.879,-510.254,27.344,19.531,67.871,0
1539630461.778,20.508,-669.922,29.785,13.672,-0.488,0
1539630461.782,20.508,-496.094,51.270,18.066,37.109,0
1539630461.785,23.926,-439.941,50.781,26.855,37.109,0
1539630461.789,31.250,-556.152,44.434,25.391,15.137,0
1539630461.793,32.227,-790.527,32.715,21.973,-39.062,0
1539630461.797,31.738,-802.734,31.738,20.508,-5.371,0
1539630461.801,32.715,-723.145,38.086,21.973,40.527,0
1539630461.805,32.715,-886.719,18.066,23.438,11.719,0
1539630461.809,34.180,-868.164,25.879,17.578,20.020,0
1539630461.813,32.227,-494.141,57.129,13.672,65.918,0
1539630461.817,30.762,-431.641,37.598,14.648,50.781,0
1539630461.821,35.645,-646.484,21.484,15.137,-17.578,0
1539630461.824,34.668,-573.242,33.203,16.602,8.789,0
1539630461.828,31.738,-423.828,32.227,17.090,34.180,0
1539630461.832,31.250,-458.008,29.785,20.020,78.613,0
1539630461.836,26.855,-497.559,27.832,17.090,116.699,0
1539630461.840,20.996,-633.789,16.602,17.578,36.133,0
1539630461.844,22.949,-712.891,28.809,20.508,28.809,0
1539630461.848,26.367,-675.781,33.203,20.508,52.246,0
1539630461.852,27.344,-923.828,21.973,24.414,24.902,0
1539630461.856,26.367,-709.473,56.641,24.414,85.449,0
1539630461.860,25.391,-438.477,52.246,25.879,116.211,0
1539630461.864,27.344,-601.074,27.344,28.809,63.477,0
1539630461.867,20.020,-615.234,30.273,23.926,28.320,0
1539630461.871,18.066,-463.379,41.992,25.391,25.879,0
1539630461.875,21.484,-437.500,35.645,25.879,20.996,0
1539630461.879,17.578,-536.133,28.809,21.973,35.156,0
1539630461.883,13.672,-574.707,34.668,25.391,23.438,0
1539630461.887,18.066,-681.641,30.273,30.762,-31.250,0
1539630461.891,26.367,-704.590,36.133,34.180,40.527,0
1539630461.895,27.344,-797.363,25.391,28.809,127.441,0
1539630461.899,26.367,-900.391,23.926,26.855,59.082,0
1539630461.903,22.461,-545.898,58.105,27.344,30.762,0
1539630461.907,19.043,-395.020,49.316,30.273,57.617,0
1539630461.910,19.531,-518.555,36.621,30.762,64.453,0
1539630461.914,16.602,-511.230,45.898,21.484,44.434,0
1539630461.918,14.160,-538.574,44.434,24.902,19.043,0
1539630461.922,18.066,-591.797,35.156,34.180,32.715,0
1539630461.926,20.996,-613.770,38.086,32.227,6.836,0
1539630461.930,19.531,-511.719,49.316,27.344,20.996,0
1539630461.934,23.438,-643.066,30.273,27.832,-32.227,0
1539630461.938,27.832,-857.422,19.531,28.320,-31.738,0
1539630461.942,28.320,-795.898,28.809,26.367,52.734,0
1539630461.946,24.902,-528.320,45.410,24.414,73.730,0
1539630461.949,25.879,-318.359,43.945,30.273,77.637,0
1539630461.953,30.273,-527.344,9.766,37.109,58.594,0
1539630461.957,30.762,-883.789,-6.836,32.227,-1.465,0
1539630461.961,29.297,-680.664,27.344,29.785,-24.414,0
1539630461.965,27.344,-460.938,37.598,35.645,-7.812,0
1539630461.969,24.414,-523.926,31.250,36.621,26.367,0
1539630461.973,24.414,-686.523,25.391,35.645,16.113,0
1539630461.977,24.414,-737.793,30.762,32.715,-43.457,0
1539630461.981,23.926,-638.672,40.039,34.180,-0.977,0
1539630461.985,25.391,-809.082,17.578,36.621,43.945,0
1539630461.989,22.949,-871.094,24.414,32.227,49.316,0
1539630461.992,22.461,-492.188,55.664,31.738,60.547,0
1539630461.996,21.484,-371.582,38.574,32.715,48.828,0
1539630462.000,19.043,-531.250,18.555,35.645,17.578,0
1539630462.004,20.996,-528.809,23.926,40.527,-2.441,0
1539630462.008,21.973,-379.883,31.250,36.621,23.926,0
1539630462.012,22.949,-433.594,17.578,30.273,33.691,0
1539630462.016,23.926,-572.754,7.324,32.227,37.109,0
1539630462.020,23.438,-481.445,22.461,35.645,50.293,0
1539630462.024,24.414,-395.020,20.996,33.691,30.273,0
1539630462.028,29.297,-549.805,-1.953,31.738,87.402,0
1539630462.032,32.227,-901.855,-23.438,28.320,69.336,0
1539630462.035,34.668,-819.824,6.836,24.414,-20.996,0
1539630462.039,36.133,-470.703,30.273,26.855,-3.906,0
1539630462.043,31.738,-576.660,6.836,25.879,-11.230,0
1539630462.047,31.738,-639.648,8.301,23.438,14.160,0
1539630462.051,26.855,-488.770,28.809,22.949,5.859,0
1539630462.055,25.879,-428.223,33.691,24.414,1.465,0
1539630462.059,30.273,-464.355,33.203,27.832,68.359,0
1539630462.063,29.785,-482.910,44.434,26.855,90.332,0
1539630462.067,35.645,-374.023,52.734,24.414,91.797,0
1539630462.071,38.574,-408.203,37.109,25.879,39.062,0
1539630462.074,35.645,-652.344,20.020,23.438,5.859,0
1539630462.078,27.344,-765.625,26.855,18.555,47.852,0
1539630462.082,25.879,-578.613,44.434,20.996,50.293,0
1539630462.086,31.738,-387.695,48.340,23.926,59.082,0
1539630462.090,32.715,-711.914,8.789,20.996,28.809,0
1539630462.094,32.227,-863.281,13.672,23.438,0.000,0
1539630462.098,31.250,-500.488,46.875,27.344,24.414,0
1539630462.102,32.227,-447.754,35.156,28.320,39.551,0
1539630462.106,34.668,-532.227,25.879,33.691,60.059,0
1539630462.110,33.203,-452.637,34.668,34.180,85.449,0
1539630462.114,26.367,-346.191,41.504,25.879,84.961,0
1539630462.117,19.531,-462.891,29.297,17.578,48.340,0
1539630462.121,16.113,-729.004,16.113,18.555,30.273,0
1539630462.125,14.160,-802.246,17.090,15.137,15.137,0
1539630462.129,12.207,-646.973,30.273,8.789,-30.273,0
1539630462.133,13.184,-550.781,26.855,9.766,57.617,0
1539630462.137,17.578,-865.234,1.953,13.184,82.031,0
1539630462.141,18.555,-703.613,30.273,12.695,67.871,0
1539630462.145,17.578,-390.625,33.203,12.207,66.895,0
1539630462.149,23.926,-632.812,10.742,17.578,4.883,0
1539630462.153,26.367,-607.910,38.086,21.973,56.641,0
1539630462.157,22.461,-359.375,47.363,20.020,95.703,0
1539630462.160,25.391,-382.324,31.738,19.531,47.852,0
1539630462.164,24.902,-445.801,31.250,20.996,91.309,0
1539630462.168,27.344,-609.863,20.508,22.461,78.613,0
1539630462.172,26.367,-699.707,20.508,23.438,46.875,0
1539630462.176,24.902,-491.699,36.621,19.043,70.312,0
1539630462.180,26.367,-710.449,-0.488,16.602,13.184,0
