timestamps,TP9,AF7,AF8,TP10,Right AUX,Marker0
1539631200.552,17.090,208.496,121.582,29.785,28.320,0
1539631200.556,27.344,152.344,59.082,35.156,2.930,0
1539631200.560,20.508,173.340,76.660,25.879,21.484,0
1539631200.564,14.160,212.402,115.234,24.414,26.367,0
1539631200.568,15.137,201.172,113.281,30.273,35.156,0
1539631200.572,15.625,114.746,30.762,28.809,26.855,0
1539631200.575,17.578,33.203,-52.246,17.578,16.113,0
1539631200.579,17.578,-15.137,-86.914,14.648,18.066,0
1539631200.583,14.648,-239.258,-283.691,18.555,65.430,0
1539631200.587,6.348,-71.777,-162.109,11.230,41.504,0
1539631200.591,8.301,256.348,147.949,11.719,13.672,0
1539631200.595,16.113,158.691,82.520,15.137,3.418,0
1539631200.599,18.555,122.559,45.898,12.207,13.672,0
1539631200.603,16.113,302.246,208.008,12.207,44.434,0
1539631200.607,15.625,333.984,245.117,13.184,45.898,0
1539631200.611,17.090,261.719,181.152,8.301,72.266,0
1539631200.614,16.113,171.875,99.609,6.836,84.961,0
1539631200.618,17.090,30.762,-36.133,12.695,52.734,0
1539631200.622,12.695,-80.078,-150.391,9.766,28.809,0
1539631200.626,17.578,-380.859,-416.504,6.836,34.180,0
1539631200.630,21.973,-501.465,-540.039,8.301,54.199,0
1539631200.634,17.578,-42.969,-140.625,8.301,40.039,0
1539631200.638,14.160,97.656,15.625,20.020,-18.555,0
1539631200.642,14.648,-49.316,-112.305,24.414,-37.598,0
1539631200.646,18.066,92.773,8.789,22.461,16.113,0
1539631200.650,13.184,294.922,210.449,20.020,56.152,0
1539631200.654,6.836,173.340,117.676,14.648,37.598,0
1539631200.657,10.254,42.969,-9.277,14.648,40.039,0
1539631200.661,14.160,191.406,123.047,10.254,89.355,0
1539631200.665,16.113,109.375,55.664,11.719,68.848,0
1539631200.669,20.996,-194.336,-216.309,17.578,52.246,0
1539631200.673,31.250,-508.301,-518.066,17.090,74.707,0
1539631200.677,36.133,-312.012,-382.324,13.184,47.363,0
1539631200.681,34.180,73.730,-14.648,5.859,20.996,0
1539631200.685,29.297,-44.922,-99.121,6.348,-1.465,2
1539631200.689,22.461,-111.328,-169.434,6.348,20.996,0
1539631200.693,18.555,45.410,-35.645,-1.953,10.254,0
1539631200.697,21.484,105.957,25.391,2.441,-3.418,0
1539631200.700,24.414,85.938,16.113,7.812,76.172,0
1539631200.704,24.902,8.789,-62.988,8.301,46.875,0
1539631200.708,36.133,42.969,-40.527,11.230,8.301,0
1539631200.712,37.598,22.949,-46.387,14.160,64.453,0
1539631200.716,32.715,-445.312,-463.379,18.066,40.039,0
1539631200.720,31.738,-660.645,-693.848,14.160,-11.230,0
1539631200.724,19.531,-174.316,-279.785,10.254,8.789,0
1539631200.728,20.508,90.332,0.488,12.695,50.781,0
1539631200.732,26.367,-18.066,-73.730,17.090,62.988,0
1539631200.736,20.020,57.129,-18.066,17.578,79.102,0
1539631200.739,21.484,264.160,175.293,18.066,74.707,0
1539631200.743,30.273,170.410,109.375,29.297,32.715,0
1539631200.747,40.039,-17.090,-69.824,36.133,-11.230,0
1539631200.751,30.762,63.965,-11.719,26.855,15.137,0
1539631200.755,22.461,197.754,115.723,23.926,41.504,0
1539631200.759,31.738,-62.988,-103.516,27.344,-0.488,0
1539631200.763,30.762,-571.289,-582.520,27.832,-29.297,0
1539631200.767,28.809,-336.914,-406.738,18.066,30.273,0
1539631200.771,26.855,168.457,71.777,12.695,77.637,0
1539631200.775,28.809,145.508,81.543,15.137,70.312,0
1539631200.779,39.551,77.148,17.578,15.625,37.109,0
1539631200.782,38.086,303.223,218.262,13.672,74.707,0
1539631200.786,31.738,279.297,215.820,14.648,58.594,0
1539631200.790,34.668,16.602,-29.297,20.508,14.648,0
1539631200.794,37.598,116.699,46.875,25.879,71.777,0
1539631200.798,33.691,265.137,184.570,24.902,51.758,0
1539631200.802,26.367,253.906,177.246,19.531,23.926,0
1539631200.806,26.855,-21.973,-67.871,19.043,17.578,0
1539631200.810,30.273,-285.156,-330.078,18.066,-13.184,0
1539631200.814,23.438,-87.891,-174.316,11.719,-17.578,0
1539631200.818,8.301,166.992,78.125,5.859,23.926,0
1539631200.822,3.906,-134.277,-169.922,0.977,62.012,0
1539631200.825,9.277,-217.773,-270.020,0.000,81.055,0
1539631200.829,14.160,150.391,49.316,4.883,29.785,0
1539631200.833,18.066,162.598,85.449,12.695,23.926,0
1539631200.837,16.113,61.523,-0.488,16.602,41.016,0
1539631200.841,14.648,73.730,-8.301,14.160,20.996,0
1539631200.845,12.207,34.180,-39.551,14.160,15.625,0
1539631200.849,6.836,-101.562,-154.785,13.672,17.578,0
1539631200.853,11.230,-267.090,-317.383,17.090,-13.184,0
1539631200.857,14.160,-338.867,-402.344,20.020,-20.020,0
1539631200.861,14.160,-26.855,-119.629,14.160,62.988,0
1539631200.864,17.578,4.883,-65.918,14.648,56.152,0
1539631200.868,15.625,-145.508,-202.637,15.625,23.438,0
1539631200.872,8.789,8.789,-78.613,5.371,21.973,0
1539631200.876,2.930,141.602,40.527,-1.953,19.531,0
1539631200.880,3.906,-113.281,-166.504,0.488,31.738,0
1539631200.884,6.348,-528.320,-554.688,2.441,41.016,0
1539631200.888,1.465,-274.902,-369.141,-0.977,31.250,0
1539631200.892,-1.465,-19.043,-125.977,-5.371,16.113,0
1539631200.896,-7.324,-99.609,-180.664,-6.348,33.203,0
1539631200.900,-9.277,-234.863,-300.781,-4.883,68.359,0
1539631200.904,-4.395,-251.465,-315.430,-0.977,91.797,0
1539631200.907,4.883,-274.902,-341.309,4.883,57.617,0
1539631200.911,9.277,-571.777,-607.910,5.371,58.594,0
1539631200.915,1.465,-616.699,-672.852,0.000,55.664,0
1539631200.919,-2.441,-109.863,-225.586,-3.418,62.012,0
1539631200.923,0.977,32.715,-57.617,-0.977,83.496,0
1539631200.927,-0.488,-82.031,-153.320,-1.465,66.406,0
1539631200.931,-6.836,-14.160,-109.863,-2.930,48.340,0
1539631200.935,-12.695,68.359,-33.691,-2.930,44.434,0
1539631200.939,-16.113,-74.707,-157.715,-5.859,48.828,0
1539631200.943,-9.277,-194.824,-276.367,-4.883,52.246,0
1539631200.947,-9.766,-212.402,-296.387,-2.930,94.238,0
1539631200.950,-16.602,-271.973,-360.840,-2.441,100.586,0
1539631200.954,-13.184,-390.625,-462.891,-2.930,54.688,0
1539631200.958,-8.789,-659.668,-701.660,-4.883,70.801,0
1539631200.962,-10.742,-579.102,-662.598,-10.254,61.035,0
1539631200.966,-11.230,-220.703,-328.613,-10.742,71.289,0
1539631200.970,-10.742,-235.840,-319.336,-7.324,33.691,0
1539631200.974,-13.184,-326.172,-409.668,-12.207,2.930,0
1539631200.978,-12.207,-108.398,-215.332,-20.508,45.898,0
1539631200.982,-12.207,8.301,-92.773,-16.602,74.219,0
1539631200.986,-16.602,-169.434,-257.324,-15.137,26.855,0
1539631200.989,-17.090,-261.719,-356.445,-19.043,7.324,0
1539631200.993,-11.230,-310.059,-390.137,-17.578,52.734,0
1539631200.997,-13.672,-336.426,-416.504,-19.531,45.898,0
1539631201.001,-8.789,-609.863,-654.297,-13.672,24.902,0
1539631201.005,-8.301,-839.355,-883.301,-16.113,-2.441,0
1539631201.009,-13.184,-383.789,-493.164,-22.949,-19.043,0
1539631201.013,-7.812,-109.863,-199.219,-13.184,54.199,0
1539631201.017,-8.789,-141.113,-197.266,-11.230,91.797,0
1539631201.021,-20.020,-198.730,-258.789,-12.207,74.219,0
1539631201.025,-18.555,-77.637,-156.250,-4.883,60.547,0
1539631201.029,-7.324,-87.891,-150.391,0.977,18.066,0
1539631201.032,-15.137,-199.707,-253.418,-1.953,11.230,0
1539631201.036,-13.672,-114.258,-183.594,-1.465,5.371,0
1539631201.040,1.465,-194.824,-249.512,4.883,0.488,0
1539631201.044,11.719,-399.902,-426.270,13.184,27.832,0
1539631201.048,19.531,-685.059,-701.660,18.066,-17.578,0
1539631201.052,7.324,-465.332,-525.879,11.230,48.828,0
1539631201.056,3.906,-76.172,-153.809,6.836,47.852,0
1539631201.060,15.137,-149.902,-201.660,10.742,-34.180,0
1539631201.064,13.672,-48.340,-98.633,10.254,57.129,0
1539631201.068,6.836,194.336,132.812,6.836,73.730,0
1539631201.072,3.418,175.293,117.188,11.230,11.719,0
1539631201.075,8.789,62.012,13.672,6.836,27.344,0
1539631201.079,13.184,-123.047,-169.434,3.418,-10.742,0
1539631201.083,8.789,-73.242,-138.184,4.883,-19.531,0
1539631201.087,1.465,-0.977,-52.734,2.441,50.293,0
1539631201.091,9.277,-396.484,-393.555,12.207,53.223,0
1539631201.095,20.996,-504.883,-519.043,13.184,53.711,0
1539631201.099,4.395,-15.137,-97.168,3.906,49.805,0
1539631201.103,-3.906,156.738,91.797,7.324,49.805,0
1539631201.107,2.930,44.922,3.418,9.766,63.477,0
1539631201.111,8.301,96.680,38.574,9.766,66.895,0
1539631201.114,10.254,184.082,116.699,6.836,36.621,0
1539631201.118,9.277,83.984,35.645,10.742,50.293,0
1539631201.122,9.277,-67.383,-103.516,13.672,51.270,0
1539631201.126,12.207,-17.578,-81.055,9.277,38.574,0
1539631201.130,15.625,103.516,28.809,8.789,57.617,0
1539631201.134,23.926,-182.617,-210.938,16.602,33.691,0
1539631201.138,25.391,-681.152,-679.199,16.602,55.176,0
1539631201.142,23.926,-481.445,-540.039,9.766,58.594,0
1539631201.146,28.320,-42.480,-129.395,9.277,38.086,0
1539631201.150,22.461,-113.770,-166.992,8.301,42.480,0
1539631201.154,16.113,-167.480,-218.262,7.324,69.336,0
1539631201.157,21.484,5.371,-69.824,7.812,63.965,0
1539631201.161,23.926,23.438,-50.293,13.672,12.207,0
1539631201.165,21.484,-135.742,-194.824,19.043,-12.207,0
1539631201.169,23.926,-203.125,-263.184,20.996,7.324,0
1539631201.173,22.949,-125.000,-198.730,18.555,15.137,0
1539631201.177,26.855,-74.219,-145.996,21.973,17.090,0
1539631201.181,36.133,-218.750,-266.113,29.297,47.852,0
1539631201.185,36.133,-416.992,-455.566,27.344,65.430,0
1539631201.189,35.645,-270.508,-342.285,20.508,43.945,0
1539631201.193,42.480,-105.957,-180.664,23.438,47.363,0
1539631201.197,41.016,-477.539,-500.000,26.367,54.688,0
1539631201.200,33.691,-536.621,-583.008,18.066,51.758,0
1539631201.204,29.785,-155.762,-246.582,13.184,14.160,0
1539631201.208,30.273,-183.105,-251.465,15.625,-36.621,0
1539631201.212,33.691,-197.754,-257.812,13.672,29.785,0
1539631201.216,29.785,-8.789,-85.449,8.301,84.473,0
1539631201.220,24.414,50.293,-31.738,9.766,37.109,0
1539631201.224,30.273,-125.977,-189.453,16.602,-17.578,0
1539631201.228,34.668,-375.488,-425.293,19.531,-20.996,0
1539631201.232,30.762,-366.699,-427.246,15.625,70.312,0
1539631201.236,26.855,-164.062,-250.488,16.113,55.664,0
1539631201.239,28.809,-225.098,-288.574,24.414,4.883,0
1539631201.243,34.180,-522.949,-548.828,23.438,84.473,0
1539631201.247,30.762,-266.602,-347.656,11.230,72.754,0
1539631201.251,21.973,-152.344,-232.910,17.578,-34.668,0
1539631201.255,18.066,-350.098,-401.367,14.648,8.301,0
1539631201.259,20.020,-238.281,-315.918,-1.465,1.465,0
1539631201.263,22.949,-69.824,-154.785,-1.953,15.137,0
1539631201.267,15.625,28.320,-47.852,-1.953,73.730,0
1539631201.271,9.277,-24.902,-98.633,-7.812,40.039,0
1539631201.275,10.742,-203.125,-270.020,0.000,48.340,0
1539631201.279,10.742,-299.316,-365.234,8.301,30.273,0
1539631201.282,5.859,-236.816,-317.383,7.812,-14.648,0
1539631201.286,6.836,-446.777,-489.258,13.184,33.691,0
1539631201.290,11.230,-640.137,-682.617,14.160,4.883,0
1539631201.294,14.160,-183.105,-296.875,11.230,-25.879,0
1539631201.298,6.348,-10.254,-103.516,12.207,11.230,0
1539631201.302,0.488,-149.902,-216.309,15.625,7.324,0
1539631201.306,4.395,-75.684,-162.598,12.695,0.977,0
1539631201.310,13.184,-93.750,-176.270,14.648,-22.949,0
1539631201.314,18.555,-205.566,-272.461,20.020,8.301,0
1539631201.318,13.184,-135.254,-203.125,16.602,61.035,0
1539631201.322,15.137,-157.715,-219.727,13.184,68.359,0
1539631201.325,25.391,-269.531,-331.543,8.789,37.109,0
1539631201.329,26.855,-410.645,-455.078,3.418,21.973,0
1539631201.333,19.531,-640.625,-665.039,3.906,58.105,0
1539631201.337,4.395,-351.074,-426.270,-1.953,100.586,0
1539631201.341,-7.324,29.297,-64.453,-5.371,79.590,0
1539631201.345,-6.348,-108.887,-169.922,-8.301,34.180,0
1539631201.349,-4.395,-230.469,-290.527,-10.742,14.648,0
1539631201.353,-11.719,-129.883,-211.426,-10.254,-5.859,0
1539631201.357,-10.254,-109.375,-191.406,-5.859,0.977,0
1539631201.361,-1.953,-175.293,-252.441,-3.418,49.805,0
1539631201.364,-4.395,-214.355,-290.039,-4.395,50.781,0
1539631201.368,-11.230,-405.762,-469.238,-2.441,-18.555,0
1539631201.372,-16.602,-483.398,-544.434,-1.953,41.504,0
1539631201.376,-8.301,-685.547,-712.402,5.859,102.539,0
1539631201.380,-1.465,-796.387,-831.055,6.836,56.641,0
1539631201.384,-5.859,-383.301,-477.539,-7.324,-0.488,0
1539631201.388,-3.906,-277.344,-354.492,-10.742,-14.160,0
1539631201.392,0.488,-310.547,-368.652,-8.301,54.688,0
1539631201.396,7.324,-234.863,-313.477,-9.766,21.973,0
1539631201.400,0.977,-92.773,-187.012,-14.648,29.297,0
1539631201.404,-2.441,-126.953,-192.871,-17.578,83.008,0
1539631201.407,1.465,-262.695,-318.359,-15.137,59.082,0
1539631201.411,-0.977,-204.590,-281.738,-14.648,31.250,0
1539631201.415,-2.930,-307.617,-370.117,-11.719,11.230,0
1539631201.419,-1.465,-555.176,-587.891,-7.812,33.203,0
1539631201.423,-4.395,-850.098,-868.652,-12.207,-8.301,0
1539631201.427,-10.742,-727.051,-784.668,-23.926,-2.441,0
1539631201.431,-7.812,-285.645,-373.535,-23.926,27.832,0
1539631201.435,-2.930,-341.797,-383.301,-14.648,24.902,0
1539631201.439,-13.672,-527.832,-544.922,-19.531,54.199,0
1539631201.443,-17.090,-276.367,-340.332,-27.344,19.531,0
1539631201.447,-15.625,-95.703,-163.574,-25.879,27.832,0
1539631201.450,-22.949,-189.941,-237.305,-18.555,30.273,0
1539631201.454,-30.762,-358.398,-406.738,-19.531,-49.805,0
1539631201.458,-33.203,-234.375,-293.457,-19.531,14.648,0
1539631201.462,-28.320,-232.422,-267.578,-12.207,71.289,0
1539631201.466,-25.879,-678.711,-664.062,-8.789,55.664,0
1539631201.470,-25.879,-790.527,-793.945,-10.254,81.055,0
1539631201.474,-21.484,-385.254,-444.336,-15.137,61.523,0
1539631201.478,-15.137,-270.508,-320.312,-14.648,19.043,0
1539631201.482,-16.602,-333.984,-367.188,-12.207,34.668,0
1539631201.486,-24.902,-393.555,-427.734,-12.207,39.551,0
1539631201.489,-25.391,-303.223,-359.863,-17.090,8.789,0
1539631201.493,-15.625,-280.273,-325.195,-16.602,8.789,0
1539631201.497,-3.906,-387.207,-416.504,-13.184,11.230,0
1539631201.501,-10.254,-359.863,-409.180,-17.578,-18.555,0
1539631201.505,-22.461,-256.348,-314.941,-19.531,4.883,0
1539631201.509,-19.043,-383.789,-400.879,-14.160,66.895,0
1539631201.513,-16.113,-868.164,-855.957,-15.137,12.207,0
1539631201.517,-23.438,-716.309,-764.648,-23.926,21.484,0
1539631201.521,-27.832,-256.836,-322.754,-26.855,64.453,0
1539631201.525,-22.949,-376.953,-403.320,-24.414,-0.488,0
1539631201.529,-14.160,-443.359,-474.609,-21.484,6.348,0
1539631201.532,-9.766,-260.742,-314.453,-16.113,19.043,0
1539631201.536,-3.418,-237.793,-285.156,-7.324,-17.578,0
1539631201.540,-1.465,-315.918,-346.191,-5.371,24.902,0
1539631201.544,-2.930,-551.758,-567.383,-2.930,-20.508,0
1539631201.548,-7.812,-472.168,-513.184,-6.836,-8.301,0
1539631201.552,-9.766,-165.527,-218.262,-6.836,65.430,0
1539631201.556,-2.441,-545.410,-534.180,-4.395,45.410,0
1539631201.560,-4.395,-778.320,-769.531,-9.766,57.617,0
1539631201.564,-9.766,-341.309,-396.973,-11.230,42.480,0
1539631201.568,-11.230,-217.285,-255.371,-8.301,24.902,0
1539631201.572,-8.789,-404.785,-416.992,-6.348,0.977,0
1539631201.575,-6.348,-389.648,-414.062,-9.766,12.207,0
1539631201.579,-8.301,-257.812,-291.504,-15.625,0.488,0
1539631201.583,-14.160,-335.938,-350.098,-12.695,0.000,0
1539631201.587,-22.949,-426.270,-427.246,-11.719,52.734,0
1539631201.591,-21.973,-408.691,-426.270,-18.066,18.066,0
1539631201.595,-16.602,-320.801,-347.656,-20.020,18.555,0
1539631201.599,-15.137,-395.996,-395.020,-22.949,47.363,0
1539631201.603,-20.996,-723.145,-699.219,-21.973,3.906,0
1539631201.607,-15.137,-889.648,-882.812,-18.555,-38.086,0
1539631201.611,-9.766,-619.141,-643.555,-22.949,8.301,0
1539631201.614,-11.719,-536.621,-524.902,-22.949,62.988,0
1539631201.618,-14.160,-914.062,-884.277,-22.949,47.363,0
1539631201.622,-25.879,-669.434,-698.730,-30.762,83.008,0
1539631201.626,-23.438,-347.656,-374.023,-30.762,49.805,0
1539631201.630,-11.719,-507.324,-505.859,-27.832,-5.371,0
1539631201.634,-14.160,-575.684,-576.660,-26.367,5.371,0
1539631201.638,-23.438,-424.316,-440.918,-26.367,18.555,0
1539631201.642,-21.973,-379.395,-391.113,-25.879,-1.465,0
1539631201.646,-19.043,-469.727,-468.262,-22.461,-0.488,0
1539631201.650,-18.555,-614.746,-600.586,-19.043,31.250,0
1539631201.654,-19.531,-655.273,-641.602,-20.020,51.758,0
1539631201.657,-7.812,-702.148,-686.523,-14.648,3.418,0
1539631201.661,3.906,-920.410,-908.203,-11.719,-65.430,0
1539631201.665,-3.906,-817.383,-828.613,-17.090,1.465,0
1539631201.669,-9.277,-336.914,-363.281,-14.160,72.266,0
1539631201.673,-0.977,-231.934,-228.516,-10.254,37.109,0
1539631201.677,0.000,-352.051,-336.426,-17.578,26.855,0
1539631201.681,-0.977,-208.984,-221.680,-15.137,40.039,0
1539631201.685,-2.441,-177.246,-189.453,-12.207,15.137,0
1539631201.689,-1.465,-288.574,-283.203,-8.789,35.645,0
1539631201.693,13.184,-318.359,-315.918,-2.930,2.930,0
1539631201.697,21.484,-386.230,-385.742,0.488,-26.855,0
1539631201.700,19.043,-436.035,-442.871,2.930,-25.879,0
1539631201.704,21.973,-429.199,-426.758,5.859,-13.184,0
1539631201.708,37.109,-595.215,-568.848,16.113,44.434,0
1539631201.712,41.504,-265.137,-291.992,13.184,82.031,0
1539631201.716,35.645,98.633,66.895,13.184,79.590,0
1539631201.720,39.551,-135.742,-131.836,17.090,13.672,0
1539631201.724,45.898,-163.574,-184.570,14.160,-51.758,0
1539631201.728,51.758,97.168,49.316,13.672,-33.691,0
1539631201.732,49.805,287.598,244.629,11.230,46.875,0
1539631201.736,43.945,240.234,206.055,9.277,48.828,0
1539631201.739,49.316,205.566,164.062,15.137,31.250,0
1539631201.743,59.570,256.348,221.191,20.508,100.586,0
1539631201.747,64.941,193.359,166.016,23.438,79.590,0
1539631201.751,63.477,-144.043,-138.184,28.809,53.223,0
1539631201.755,57.617,-231.934,-238.770,29.297,77.637,0
1539631201.759,62.988,214.355,142.090,32.227,-4.395,0
1539631201.763,72.266,357.422,298.340,38.574,-40.039,0
1539631201.767,67.383,303.711,263.184,36.621,8.301,0
1539631201.771,65.430,303.223,242.676,36.133,-53.223,0
1539631201.775,69.824,255.371,188.965,36.621,-100.098,0
1539631201.779,75.684,235.840,174.316,38.574,-38.574,0
1539631201.782,70.312,382.324,313.477,38.086,53.223,0
1539631201.786,66.895,500.488,422.363,36.621,36.133,0
1539631201.790,74.219,450.684,378.418,38.574,32.227,0
1539631201.794,77.637,325.195,271.973,43.945,90.332,0
1539631201.798,78.125,39.062,5.371,44.922,84.961,0
1539631201.802,68.359,156.250,67.383,33.203,15.625,0
1539631201.806,70.801,536.133,415.039,35.645,12.695,0
1539631201.810,80.566,502.441,411.621,39.551,44.922,0
1539631201.814,77.148,487.305,391.113,34.668,65.430,0
1539631201.818,67.871,684.082,565.918,35.645,83.496,0
1539631201.822,67.383,703.613,591.797,37.598,59.082,0
1539631201.825,74.707,527.832,427.734,37.598,23.926,0
1539631201.829,69.336,500.488,390.625,34.668,55.664,0
1539631201.833,62.500,472.656,365.723,32.227,70.312,0
1539631201.837,60.059,270.508,172.852,37.109,22.461,0
1539631201.841,64.453,-81.055,-147.461,40.039,23.438,0
1539631201.845,69.336,-145.508,-225.098,33.691,57.129,0
1539631201.849,60.547,453.125,308.594,27.832,129.395,0
1539631201.853,52.734,639.648,515.625,31.738,94.727,0
1539631201.857,56.641,428.711,325.195,38.086,31.250,0
1539631201.861,63.965,473.633,347.656,39.062,50.781,0
1539631201.864,62.988,593.750,452.148,39.062,27.344,0
1539631201.868,63.965,458.008,333.984,42.969,12.695,0
1539631201.872,62.012,352.051,233.887,47.363,67.383,0
1539631201.876,59.570,449.707,310.547,53.223,77.637,0
1539631201.880,59.082,488.770,340.820,56.152,34.180,0
1539631201.884,53.223,230.957,117.676,60.059,21.484,0
1539631201.888,45.410,-280.273,-351.562,60.059,47.852,0
1539631201.892,44.922,-226.562,-348.633,53.223,34.668,0
1539631201.896,50.781,179.688,20.508,51.270,48.828,0
1539631201.900,49.316,219.727,91.309,52.246,96.680,0
1539631201.904,42.969,193.359,60.547,48.828,52.734,0
1539631201.907,44.434,341.797,186.523,40.527,47.363,0
1539631201.911,46.387,415.039,261.719,38.086,49.316,0
1539631201.915,44.922,277.832,137.207,40.039,31.250,0
1539631201.919,43.945,178.711,37.598,36.621,40.527,0
1539631201.923,39.062,288.574,133.301,28.320,69.824,0
1539631201.927,36.133,330.078,180.176,22.949,72.266,0
1539631201.931,41.504,68.848,-51.758,23.926,38.086,0
1539631201.935,43.945,-214.355,-330.566,22.461,8.301,0
1539631201.939,40.527,-32.227,-184.082,17.090,52.734,0
1539631201.943,47.363,229.004,68.848,25.879,70.801,0
1539631201.947,53.711,-151.855,-256.348,30.762,27.832,0
1539631201.950,47.852,-351.562,-468.750,20.996,-0.977,0
1539631201.954,41.016,110.352,-58.594,22.461,56.152,0
1539631201.958,47.363,211.914,72.754,31.738,71.777,0
1539631201.962,47.363,156.250,32.715,33.203,81.055,0
1539631201.966,35.156,223.145,84.961,25.879,71.289,0
1539631201.970,25.879,257.812,113.281,19.043,35.645,0
1539631201.974,28.320,167.480,41.016,22.461,48.828,0
1539631201.978,40.527,-63.477,-166.504,31.250,39.551,0
1539631201.982,38.086,-161.133,-273.926,29.297,39.551,0
1539631201.986,26.367,41.016,-99.609,27.832,55.176,0
1539631201.989,32.227,46.387,-67.383,37.598,29.297,0
1539631201.993,40.527,-335.938,-402.832,38.086,67.383,0
1539631201.997,38.086,-185.059,-298.828,36.621,48.340,0
1539631202.001,30.762,206.055,65.430,39.551,23.926,0
1539631202.005,28.320,163.086,60.059,42.480,78.613,0
1539631202.009,39.551,105.957,1.953,48.340,52.246,0
1539631202.013,40.527,290.039,159.668,43.457,28.809,0
1539631202.017,27.832,337.891,212.891,33.691,25.391,0
1539631202.021,20.508,272.949,165.527,25.391,71.289,0
1539631202.025,31.738,53.711,-35.156,19.531,34.180,1
1539631202.029,38.086,-62.500,-158.203,19.531,18.555,0
1539631202.032,32.715,156.250,37.598,18.066,77.637,0
1539631202.036,37.598,-74.219,-146.973,22.949,57.129,0
1539631202.040,41.016,-184.570,-256.348,24.414,114.746,0
1539631202.044,48.340,322.266,186.523,23.926,84.961,0
1539631202.048,56.152,388.672,272.949,29.297,1.953,0
1539631202.052,47.852,299.316,202.637,28.809,51.270,0
1539631202.056,45.410,346.680,225.586,28.809,21.484,0
1539631202.060,47.363,484.863,350.098,26.855,20.020,0
1539631202.064,38.574,366.211,264.160,22.949,52.246,0
1539631202.068,29.785,238.770,144.043,26.855,31.250,0
1539631202.072,31.250,185.547,84.961,29.297,18.066,0
1539631202.075,35.156,249.512,137.695,26.855,85.938,0
1539631202.079,40.527,346.680,249.023,31.738,97.168,0
1539631202.083,43.457,-56.152,-115.234,36.621,20.508,0
1539631202.087,34.668,114.258,-1.953,33.203,44.434,0
1539631202.091,31.738,580.078,439.453,30.762,81.055,0
1539631202.095,35.645,547.852,443.848,36.133,89.355,0
1539631202.099,29.785,509.766,411.133,38.574,97.168,0
1539631202.103,29.785,651.367,529.297,33.691,61.523,0
1539631202.107,37.598,585.449,479.492,36.133,63.965,0
1539631202.111,47.852,432.617,333.008,36.621,81.543,0
1539631202.114,50.293,532.227,404.785,35.156,78.125,0
1539631202.118,52.246,515.137,401.367,35.645,102.051,0
1539631202.122,59.570,364.746,256.836,35.156,64.453,0
1539631202.126,60.059,43.945,-37.109,38.574,29.785,0
1539631202.130,50.781,-17.578,-111.816,33.203,53.223,0
1539631202.134,39.062,461.426,304.199,26.367,26.367,0
1539631202.138,41.016,575.195,436.035,24.902,1.465,0
1539631202.142,42.480,530.762,404.785,20.996,73.730,0
1539631202.146,42.480,674.316,530.273,21.484,98.633,0
1539631202.150,42.480,789.062,637.207,27.344,59.570,0
1539631202.154,44.922,635.742,502.930,35.645,24.902,0
1539631202.157,49.805,451.660,319.824,32.715,11.719,0
1539631202.161,56.641,522.461,370.117,33.203,15.625,0
1539631202.165,59.082,443.848,299.316,39.551,-3.418,0
1539631202.169,59.082,218.750,100.098,41.992,29.297,0
1539631202.173,61.523,-1.465,-100.098,41.016,98.633,0
1539631202.177,58.105,213.867,65.430,26.855,79.102,0
1539631202.181,47.852,518.066,353.027,25.879,71.777,0
1539631202.185,39.062,440.918,300.781,28.320,70.801,0
1539631202.189,34.180,419.434,269.043,18.066,35.645,0
1539631202.193,33.691,580.566,406.738,13.184,32.715,0
1539631202.197,36.621,708.496,537.109,16.602,80.078,0
1539631202.200,35.156,613.770,458.008,20.996,93.262,0
1539631202.204,33.691,478.027,317.383,25.879,41.016,0
1539631202.208,44.434,565.430,391.602,28.809,57.129,0
1539631202.212,48.340,499.023,339.844,33.203,76.172,0
1539631202.216,45.410,73.242,-41.992,41.016,96.680,0
1539631202.220,34.180,-133.789,-259.277,34.668,60.547,0
1539631202.224,23.438,273.926,83.984,18.066,21.973,0
1539631202.228,23.438,490.234,311.523,12.695,46.875,0
1539631202.232,16.602,422.852,263.184,8.789,54.199,0
1539631202.236,12.695,327.637,166.504,9.766,19.043,0
1539631202.239,11.719,316.895,146.484,6.836,9.277,0
1539631202.243,17.578,338.867,165.527,3.906,-6.836,0
1539631202.247,22.949,275.879,114.746,10.742,-9.277,0
1539631202.251,16.602,415.527,239.258,8.301,65.430,0
1539631202.255,18.555,535.645,355.469,0.977,84.473,0
1539631202.259,26.855,338.867,198.730,7.812,81.543,0
1539631202.263,20.508,-117.676,-222.168,10.254,78.125,0
1539631202.267,12.695,-5.371,-159.668,4.883,57.129,0
1539631202.271,17.578,440.430,260.254,8.301,88.867,0
1539631202.275,29.297,415.527,276.367,11.719,113.770,0
1539631202.279,36.133,332.031,197.754,12.695,76.660,0
1539631202.282,32.715,471.680,310.059,13.184,62.012,0
1539631202.286,31.738,435.059,280.762,16.113,20.996,0
1539631202.290,34.180,290.039,144.531,19.043,12.207,0
1539631202.294,45.410,148.926,14.160,26.855,26.855,0
1539631202.298,42.480,143.555,7.324,27.344,51.758,0
1539631202.302,32.227,385.254,227.539,21.973,90.820,0
1539631202.306,35.645,63.965,-37.109,28.320,76.172,0
1539631202.310,34.180,-210.449,-305.664,20.508,68.359,0
1539631202.314,24.902,205.566,43.945,6.348,38.086,0
1539631202.318,21.484,235.352,95.703,10.742,29.297,0
1539631202.322,15.137,67.383,-50.293,10.254,41.016,0
1539631202.325,9.277,166.504,28.809,2.441,25.879,0
1539631202.329,6.836,381.836,239.258,0.000,74.219,0
1539631202.333,12.207,343.262,228.516,6.836,66.406,0
1539631202.337,9.766,167.480,68.359,9.766,37.109,0
1539631202.341,4.883,198.242,80.078,5.371,27.832,0
1539631202.345,0.000,275.391,149.902,-0.977,10.254,0
1539631202.349,-0.488,212.402,105.469,1.953,41.504,0
1539631202.353,-0.488,-19.531,-105.957,7.324,50.293,0
1539631202.357,0.977,-169.434,-260.254,4.395,21.973,0
1539631202.361,7.324,-96.680,-205.566,2.441,29.297,0
1539631202.364,3.418,-102.051,-195.801,2.930,15.625,0
1539631202.368,3.906,-406.250,-468.750,2.930,6.348,0
1539631202.372,4.395,-182.129,-296.875,1.465,31.250,0
1539631202.376,6.348,176.758,38.086,2.441,-16.602,0
1539631202.380,8.789,145.020,34.180,0.488,21.973,0
1539631202.384,4.395,215.332,109.863,-6.348,98.633,0
1539631202.388,1.953,369.629,252.441,-8.789,92.773,0
1539631202.392,5.371,347.168,229.004,-4.883,44.434,0
1539631202.396,3.906,225.586,117.188,4.395,33.203,0
1539631202.400,-1.953,97.168,0.977,9.277,81.055,0
1539631202.404,7.324,-20.996,-114.746,15.625,73.242,0
1539631202.407,13.672,50.781,-61.035,13.184,46.387,0
1539631202.411,14.160,-195.801,-270.996,8.789,42.480,0
1539631202.415,13.672,-369.629,-440.430,14.160,48.828,0
1539631202.419,-0.977,105.957,-35.645,11.230,37.598,0
1539631202.423,-3.906,291.992,161.621,13.672,72.266,0
1539631202.427,9.277,186.523,81.543,15.625,76.172,0
1539631202.431,6.836,171.875,49.316,15.137,10.254,0
1539631202.435,-0.488,237.305,105.469,12.207,-9.277,0
1539631202.439,0.977,169.434,60.059,2.930,35.156,0
1539631202.443,4.395,102.051,0.488,1.465,62.500,0
1539631202.447,7.324,9.766,-90.332,6.836,65.430,0
1539631202.450,0.977,-27.832,-142.090,5.371,42.969,0
1539631202.454,-0.977,-93.262,-197.266,1.953,1.465,0
1539631202.458,6.836,-504.395,-569.824,-0.977,0.488,0
1539631202.462,10.742,-368.164,-490.723,-4.883,-10.254,0
1539631202.466,4.395,-2.441,-148.926,-5.859,-14.160,0
1539631202.470,-1.465,-85.449,-191.406,1.465,61.523,0
1539631202.474,0.977,-98.145,-209.473,4.395,69.336,0
1539631202.478,3.906,62.500,-75.684,0.488,17.090,0
1539631202.482,5.859,85.938,-46.875,0.977,7.812,0
1539631202.486,1.465,-15.625,-132.324,-2.441,44.922,0
1539631202.489,-2.930,-94.727,-210.449,-7.324,41.016,0
1539631202.493,-3.418,-156.250,-266.113,-5.371,50.781,0
1539631202.497,-6.836,-190.918,-294.922,-1.465,98.145,0
1539631202.501,-8.301,-541.504,-610.840,4.883,49.805,0
1539631202.505,-13.184,-685.547,-770.020,-1.953,55.664,0
1539631202.509,-17.090,-234.863,-386.230,-13.184,28.809,0
1539631202.513,-15.625,-43.945,-179.688,-10.742,23.926,0
1539631202.517,-14.648,-130.859,-238.770,-7.812,54.199,0
1539631202.521,-11.719,-141.113,-266.602,-8.789,15.137,0
1539631202.525,-9.277,-19.531,-160.156,-12.695,15.625,0
1539631202.529,-2.930,-140.625,-250.000,-4.883,74.219,0
1539631202.532,-0.977,-271.973,-381.348,-0.977,54.688,0
1539631202.536,-6.348,-147.949,-284.668,-10.254,15.625,0
1539631202.540,-4.883,-192.383,-315.430,-7.324,58.105,0
1539631202.544,-1.465,-381.348,-473.145,-2.441,77.148,0
1539631202.548,-5.859,-686.523,-757.324,-6.348,39.062,0
1539631202.552,-11.719,-515.137,-635.254,-14.160,28.809,0
1539631202.556,-10.742,-82.031,-229.492,-13.672,38.086,0
1539631202.560,-3.906,-108.887,-220.215,-10.742,41.016,0
1539631202.564,-1.953,-161.133,-267.578,-13.184,36.621,0
1539631202.568,-4.395,-12.695,-140.625,-8.789,22.461,0
1539631202.572,-6.836,-13.672,-139.648,0.000,-16.602,0
1539631202.575,-9.277,-132.812,-249.512,-4.883,0.000,0
1539631202.579,-2.930,-94.238,-216.797,-9.766,42.480,0
1539631202.583,-4.883,-53.223,-171.387,-4.883,30.273,0
1539631202.587,-8.789,-277.344,-375.977,-5.371,-23.926,0
1539631202.591,2.441,-610.352,-676.758,-1.953,30.762,0
1539631202.595,6.348,-676.270,-753.906,1.465,52.246,0
1539631202.599,-5.859,-207.031,-348.145,-9.277,21.484,0
1539631202.603,-14.648,-15.625,-141.113,-12.695,19.043,0
1539631202.607,-8.789,-185.547,-290.039,-6.348,-14.160,0
1539631202.611,-2.930,-25.879,-154.297,-6.348,77.637,0
1539631202.614,-6.836,154.297,16.113,-11.230,69.336,0
1539631202.618,-5.859,-22.949,-139.160,-5.371,-3.906,0
1539631202.622,-7.812,-218.262,-324.707,-4.395,-3.418,0
1539631202.626,-6.348,-229.980,-360.840,-6.348,-34.180,0
1539631202.630,-4.883,-133.301,-274.902,-5.859,-12.695,0
1539631202.634,-7.812,-401.367,-503.418,-3.906,-22.461,0
1539631202.638,-12.695,-869.629,-916.016,-3.906,-24.414,0
1539631202.642,-15.137,-704.590,-799.805,-10.742,44.922,0
1539631202.646,-17.578,-296.387,-437.012,-15.137,100.586,0
1539631202.650,-22.949,-334.473,-452.148,-14.648,30.762,0
1539631202.654,-19.531,-473.633,-593.750,-14.648,-52.246,0
1539631202.657,-17.578,-297.363,-442.871,-16.602,-15.625,0
1539631202.661,-8.301,-128.906,-274.414,-7.324,34.180,0
1539631202.665,0.488,-181.641,-312.988,-1.465,46.387,0
1539631202.669,-11.230,-245.605,-376.465,-4.395,41.504,0
1539631202.673,-17.090,-173.828,-319.824,-9.277,14.160,0
1539631202.677,-11.230,-126.953,-270.020,-8.301,20.508,0
1539631202.681,-12.207,-290.527,-400.879,-9.277,62.500,0
1539631202.685,-19.531,-498.535,-607.910,-13.184,30.273,0
1539631202.689,-20.508,-329.590,-473.633,-16.113,4.395,0
1539631202.693,-18.555,-103.027,-249.512,-17.090,15.137,0
1539631202.697,-18.555,-444.824,-535.645,-11.719,-8.789,0
1539631202.700,-21.484,-688.477,-778.320,-9.277,-11.719,0
1539631202.704,-28.320,-290.039,-434.082,-15.625,13.184,0
1539631202.708,-19.043,-104.492,-236.328,-14.160,24.414,0
1539631202.712,-10.742,-73.730,-187.988,-7.324,67.383,0
1539631202.716,-16.602,51.270,-77.148,-9.277,72.266,0
1539631202.720,-19.043,134.277,5.371,-6.836,58.594,0
1539631202.724,-13.672,-17.090,-122.070,0.488,16.113,0
1539631202.728,-0.977,-252.930,-339.355,3.418,21.484,0
1539631202.732,-2.441,-360.840,-458.984,2.441,14.160,0
1539631202.736,-10.742,-165.039,-293.457,1.465,23.926,0
1539631202.739,-3.418,-83.984,-181.641,2.930,86.914,0
1539631202.743,7.812,-505.371,-563.965,2.930,40.527,0
1539631202.747,5.859,-408.691,-534.180,-2.441,-32.715,0
1539631202.751,-1.953,-31.738,-179.688,-0.977,2.930,0
1539631202.755,1.953,-59.082,-181.152,-0.488,37.598,0
1539631202.759,7.324,-217.285,-345.215,-1.953,9.277,0
1539631202.763,5.859,-166.504,-318.848,1.465,8.789,0
1539631202.767,4.395,48.340,-114.746,3.418,52.734,0
1539631202.771,1.465,5.859,-136.719,3.418,37.598,0
1539631202.775,3.906,-199.219,-320.312,0.977,26.367,0
1539631202.779,11.230,-270.020,-392.578,2.441,30.273,0
1539631202.782,7.812,12.695,-133.789,2.441,75.195,0
1539631202.786,6.348,-205.078,-304.199,6.348,75.684,0
1539631202.790,1.953,-518.555,-612.793,5.859,37.598,0
1539631202.794,0.000,-34.180,-193.848,0.488,55.664,0
1539631202.798,0.488,84.961,-50.781,6.836,18.555,0
1539631202.802,-4.883,-30.762,-144.531,8.301,35.645,0
1539631202.806,-4.883,74.219,-55.664,3.906,72.266,0
1539631202.810,-1.465,186.035,47.852,4.883,36.621,0
1539631202.814,2.441,79.102,-40.527,4.883,14.648,0
1539631202.818,-2.441,-71.777,-176.270,2.930,56.641,0
1539631202.822,-3.906,-146.973,-257.812,3.906,50.781,0
1539631202.825,9.766,-250.488,-363.281,2.930,1.953,0
1539631202.829,11.719,-294.434,-398.438,2.441,60.547,0
1539631202.833,8.301,-185.059,-305.176,0.488,103.516,0
1539631202.837,1.953,59.082,-94.238,-1.953,85.938,0
1539631202.841,-1.953,216.309,54.199,-1.953,64.453,0
1539631202.845,6.348,-60.059,-178.223,4.883,3.906,0
1539631202.849,9.277,-551.270,-642.090,9.277,-26.367,0
1539631202.853,1.465,-326.172,-483.398,0.488,1.953,0
1539631202.857,-5.859,-17.090,-190.918,-1.465,-0.488,0
1539631202.861,-0.488,-164.551,-321.777,4.395,-58.105,0
1539631202.864,4.883,-224.609,-386.230,11.230,-74.219,0
1539631202.868,4.883,-229.980,-388.184,19.043,-45.898,0
1539631202.872,5.371,-237.305,-390.137,19.043,31.250,0
1539631202.876,13.672,-501.953,-611.816,19.531,19.043,0
1539631202.880,21.973,-624.512,-742.676,15.625,-14.648,0
1539631202.884,13.184,-127.441,-308.594,9.277,-2.930,0
1539631202.888,10.254,139.160,-20.508,10.742,64.453,0
1539631202.892,17.578,78.125,-57.617,9.766,88.867,0
1539631202.896,20.508,59.570,-93.750,4.395,18.555,0
1539631202.900,15.137,183.594,16.113,3.418,25.391,0
1539631202.904,17.090,154.297,6.836,5.859,80.566,0
1539631202.907,23.438,-3.906,-140.137,5.859,44.922,0
1539631202.911,23.926,-21.484,-177.734,0.977,-20.020,0
1539631202.915,22.949,-56.152,-205.566,0.488,30.762,0
1539631202.919,23.926,-282.715,-401.855,4.883,38.574,0
1539631202.923,23.438,-619.141,-718.262,10.742,40.039,0
1539631202.927,12.207,-334.473,-483.887,8.789,95.703,0
1539631202.931,12.695,83.496,-80.566,8.301,57.617,0
1539631202.935,15.625,-88.379,-214.355,16.602,41.992,0
1539631202.939,9.277,-124.512,-270.020,20.020,63.965,0
1539631202.943,18.066,97.656,-78.613,23.438,60.059,0
1539631202.947,29.785,191.406,20.996,31.738,64.453,0
1539631202.950,20.508,67.383,-84.473,31.738,64.453,0
1539631202.954,8.789,-30.273,-188.965,25.879,53.223,0
1539631202.958,17.578,41.016,-130.859,21.973,39.551,0
1539631202.962,25.879,-102.539,-259.277,20.508,4.883,0
1539631202.966,24.414,-583.496,-685.547,20.996,-14.648,0
1539631202.970,20.508,-739.258,-846.191,11.719,6.836,0
1539631202.974,15.625,-248.047,-431.641,6.836,20.020,0
1539631202.978,23.438,-10.254,-175.781,17.090,7.324,0
1539631202.982,24.414,-64.941,-199.219,21.973,43.945,0
1539631202.986,17.578,46.387,-103.027,21.973,71.289,0
1539631202.989,18.066,116.211,-26.855,20.996,73.730,0
1539631202.993,18.555,-20.996,-145.020,19.531,80.566,0
1539631202.997,10.254,-34.668,-174.316,15.137,79.102,0
1539631203.001,3.418,5.371,-145.508,12.207,22.461,0
1539631203.005,3.418,45.898,-107.910,8.789,4.883,0
1539631203.009,12.695,-112.793,-229.980,10.742,54.199,0
1539631203.013,11.719,-558.594,-637.695,10.742,57.129,0
1539631203.017,3.906,-439.941,-571.777,1.953,30.762,0
1539631203.021,10.254,-39.551,-200.684,0.488,8.789,0
1539631203.025,12.207,-76.172,-199.219,-1.465,37.598,0
1539631203.029,14.160,-78.613,-194.336,-0.488,71.289,0
1539631203.032,10.742,13.672,-117.188,5.371,-13.184,0
1539631203.036,3.418,-22.461,-152.344,4.883,-61.523,0
1539631203.040,7.812,-29.297,-146.484,0.488,54.199,0
1539631203.044,16.113,40.527,-71.777,1.953,102.051,0
1539631203.048,23.926,14.160,-91.309,15.625,49.805,0
1539631203.052,25.879,-184.082,-277.344,25.879,-4.395,0
1539631203.056,17.090,-282.227,-373.535,20.996,10.742,0
1539631203.060,11.230,-347.656,-439.453,18.066,39.062,0
1539631203.064,8.789,-136.719,-248.047,17.090,80.566,0
1539631203.068,9.766,92.285,-23.926,18.066,57.617,0
1539631203.072,12.207,-345.703,-395.508,19.531,23.926,0
1539631203.075,13.672,-641.602,-695.801,8.789,1.465,0
1539631203.079,10.254,-182.129,-310.547,0.977,-0.488,0
1539631203.083,7.812,-40.527,-140.137,5.371,14.160,0
1539631203.087,5.859,-219.727,-293.945,4.883,-12.207,0
1539631203.091,9.766,-138.184,-235.352,5.859,2.441,0
1539631203.095,17.090,99.121,-3.418,6.836,54.688,0
1539631203.099,14.648,31.738,-38.574,10.742,38.574,0
1539631203.103,10.254,-297.363,-340.332,11.719,-17.090,0
1539631203.107,15.137,-414.551,-465.332,6.348,2.930,0
1539631203.111,20.020,-305.176,-368.164,10.254,26.855,0
1539631203.114,15.137,-263.672,-306.152,7.324,38.574,0
1539631203.118,15.625,-499.023,-511.719,1.465,64.941,0
1539631203.122,14.160,-228.027,-291.992,-2.930,129.883,0
1539631203.126,16.602,149.414,71.289,-3.418,88.379,0
1539631203.130,14.160,-17.578,-61.035,-1.465,12.695,0
1539631203.134,5.859,-79.590,-125.977,-0.977,26.855,0
1539631203.138,2.930,39.062,-24.414,-0.977,10.742,0
1539631203.142,9.277,82.520,17.090,-0.488,12.207,0
1539631203.146,15.625,-22.949,-77.148,-0.488,5.371,0
1539631203.150,11.230,-215.820,-257.324,3.906,5.859,0
1539631203.154,3.906,-270.020,-309.082,6.348,52.734,0
1539631203.157,4.883,-93.262,-156.250,7.324,33.691,0
1539631203.161,15.137,-311.523,-337.402,11.719,23.438,0
1539631203.165,15.625,-519.531,-541.504,11.230,61.035,0
1539631203.169,8.301,-104.980,-190.918,3.418,28.320,0
1539631203.173,9.277,91.797,20.508,-0.488,52.246,0
1539631203.177,13.184,-15.625,-60.547,5.371,104.980,0
1539631203.181,4.395,-0.488,-64.453,3.418,72.266,0
1539631203.185,-0.488,158.203,75.195,3.418,51.270,0
1539631203.189,9.766,69.336,4.883,13.672,42.480,0
1539631203.193,17.090,-53.223,-108.398,15.625,38.574,0
1539631203.197,21.484,-107.910,-169.922,18.555,56.641,0
1539631203.200,20.508,-162.598,-225.098,21.973,66.406,0
1539631203.204,18.555,-299.805,-346.191,22.949,29.785,0
1539631203.208,23.438,-606.445,-638.672,20.020,32.715,0
1539631203.212,23.438,-345.215,-430.176,10.742,59.082,0
1539631203.216,19.043,61.523,-45.898,11.230,27.344,0
1539631203.220,16.602,-22.949,-93.750,13.184,31.250,0
1539631203.224,14.648,-221.191,-283.203,9.277,14.160,0
1539631203.228,17.090,-40.039,-142.578,7.324,31.250,0
1539631203.232,15.625,116.699,9.277,5.859,19.531,0
1539631203.236,8.301,-83.984,-177.246,3.418,-47.363,0
1539631203.239,5.371,-93.750,-201.172,-1.465,16.602,0
1539631203.243,1.953,-118.164,-218.262,-5.371,31.250,0
1539631203.247,1.953,-246.094,-340.332,-0.488,8.789,0
1539631203.251,4.883,-533.203,-597.168,6.348,11.230,0
1539631203.255,1.953,-726.562,-811.523,2.930,-5.371,0
1539631203.259,2.930,-220.215,-395.508,-5.859,25.391,0
1539631203.263,4.395,62.012,-98.633,-1.953,33.691,0
1539631203.267,-0.977,-61.035,-184.082,1.465,74.219,0
1539631203.271,-5.859,-23.438,-164.062,-5.371,88.379,0
1539631203.275,-2.930,169.434,12.207,-8.301,62.012,0
1539631203.279,3.418,81.055,-47.852,-6.836,45.410,0
1539631203.282,0.000,-50.293,-163.086,-6.348,72.266,0
1539631203.286,-3.418,49.316,-81.055,-7.324,94.238,0
1539631203.290,3.906,-96.680,-217.773,-5.859,16.113,0
1539631203.294,14.160,-381.836,-475.586,3.906,-10.254,0
1539631203.298,21.973,-691.406,-760.742,11.230,12.695,0
1539631203.302,11.230,-482.910,-597.656,3.906,26.367,0
1539631203.306,2.441,-27.344,-168.945,2.441,26.367,0
1539631203.310,9.766,-90.332,-195.801,6.836,10.254,0
1539631203.314,8.789,-139.648,-242.188,4.883,7.324,0
1539631203.318,1.953,59.570,-62.012,-0.488,37.109,0
1539631203.322,1.465,139.160,24.414,-2.441,41.016,0
1539631203.325,10.254,-32.715,-128.906,-0.488,16.602,0
1539631203.329,8.301,-99.121,-203.125,0.000,19.043,0
1539631203.333,0.977,83.008,-28.320,0.000,62.012,0
1539631203.337,6.348,-83.496,-167.969,5.859,3.418,0
1539631203.341,12.695,-569.824,-616.211,12.207,-21.973,0
1539631203.345,13.672,-656.738,-720.703,6.836,27.832,0
1539631203.349,10.742,-163.086,-295.410,1.953,30.273,0
1539631203.353,8.301,110.352,-8.789,2.930,75.195,0
1539631203.357,5.371,5.371,-87.891,1.953,64.453,0
1539631203.361,6.348,10.742,-104.004,5.371,23.926,0
1539631203.364,3.418,145.020,9.277,-0.488,19.043,0
1539631203.368,2.930,84.961,-38.574,-2.930,21.973,0
1539631203.372,10.254,-170.898,-284.180,4.883,-3.906,0
1539631203.376,15.625,-184.570,-341.309,1.465,-14.160,0
1539631203.380,20.020,38.086,-147.949,-1.465,27.344,0
1539631203.384,20.020,-63.965,-212.402,8.301,69.336,0
1539631203.388,14.648,-523.926,-637.695,14.648,65.430,0
1539631203.392,11.719,-416.504,-588.379,8.301,15.625,0
1539631203.396,12.207,-126.953,-318.848,7.324,-20.508,0
1539631203.400,9.766,-254.395,-404.297,13.672,31.250,0
1539631203.404,5.859,-144.043,-305.664,12.695,73.242,0
1539631203.407,9.766,60.547,-126.465,8.789,20.996,0
1539631203.411,15.137,137.695,-51.270,5.859,7.324,0
1539631203.415,8.789,28.809,-146.484,0.977,-2.441,1
1539631203.419,-2.441,-31.738,-207.031,0.000,18.066,0
1539631203.423,-3.906,134.277,-46.387,2.441,80.078,0
1539631203.427,0.977,232.910,52.246,3.418,58.594,0
1539631203.431,1.465,-125.488,-253.906,5.859,86.914,0
1539631203.435,-1.465,-331.055,-454.590,0.488,155.762,0
1539631203.439,0.977,-10.742,-197.266,-0.977,75.684,0
1539631203.443,10.742,91.309,-92.285,9.277,39.062,0
1539631203.447,14.648,24.414,-154.785,9.766,83.496,0
1539631203.450,10.254,9.277,-208.496,5.859,47.363,0
1539631203.454,12.207,-0.977,-237.305,5.371,40.039,0
1539631203.458,16.113,-42.969,-271.973,5.859,70.801,0
1539631203.462,12.695,-56.152,-288.574,6.836,47.363,0
1539631203.466,5.371,-63.965,-311.523,8.789,-10.742,0
1539631203.470,0.977,39.551,-218.262,8.301,21.484,0
1539631203.474,9.277,2.441,-229.492,13.184,46.387,0
1539631203.478,19.043,-261.719,-469.727,24.414,-5.371,0
1539631203.482,18.555,-362.793,-584.473,23.438,4.395,0
1539631203.486,17.090,-139.160,-390.137,17.578,28.809,0
1539631203.489,21.973,-94.727,-314.453,19.043,42.969,0
1539631203.493,27.832,-523.926,-688.477,21.484,14.160,0
1539631203.497,20.020,-333.496,-547.363,16.113,29.297,0
1539631203.501,15.137,87.891,-138.184,16.602,52.246,0
1539631203.505,15.137,-34.180,-215.820,17.090,22.461,0
1539631203.509,13.672,-51.758,-229.492,12.207,43.457,0
1539631203.513,19.043,-9.277,-189.941,11.719,33.203,0
1539631203.517,15.625,-63.477,-255.859,14.648,-33.203,0
1539631203.521,7.812,-49.805,-250.977,15.137,-2.930,0
1539631203.525,11.719,-179.199,-364.746,13.672,31.738,0
1539631203.529,17.578,-219.238,-403.320,12.695,51.270,0
1539631203.532,16.602,-54.199,-252.930,9.766,64.453,0
1539631203.536,20.508,-288.086,-439.941,13.672,64.453,0
1539631203.540,24.902,-540.527,-688.477,14.648,19.531,0
1539631203.544,19.531,-125.977,-344.238,6.348,-15.137,0
1539631203.548,13.184,156.738,-32.227,9.277,83.008,0
1539631203.552,16.602,-29.297,-181.152,17.578,14.160,0
1539631203.556,22.949,-50.781,-221.680,13.184,-28.320,0
1539631203.560,31.250,164.062,-14.160,10.742,30.762,0
1539631203.564,36.133,109.863,-41.992,20.020,32.715,0
1539631203.568,30.273,-9.277,-146.484,21.973,28.320,0
1539631203.572,25.879,-151.855,-289.062,24.902,-7.812,0
1539631203.575,22.461,-245.117,-382.812,24.902,8.789,0
1539631203.579,19.043,-332.520,-455.566,20.020,0.488,0
1539631203.583,15.137,-636.230,-735.840,20.020,-13.184,0
1539631203.587,11.230,-417.480,-562.988,11.719,4.395,0
1539631203.591,9.766,80.078,-94.238,8.301,51.270,0
1539631203.595,17.578,124.023,-35.156,13.184,79.102,0
1539631203.599,13.184,37.598,-128.418,12.695,40.527,0
1539631203.603,-2.441,125.977,-53.223,9.277,17.090,0
1539631203.607,-3.906,138.184,-32.227,3.418,12.695,0
1539631203.611,3.906,-14.160,-176.270,0.488,-13.184,0
1539631203.614,8.789,-106.445,-277.832,1.953,-45.410,0
1539631203.618,0.000,-189.453,-348.633,4.883,-34.180,0
1539631203.622,-1.953,-298.828,-444.824,9.766,-22.949,0
1539631203.626,10.742,-547.852,-657.715,17.578,4.883,0
1539631203.630,7.324,-670.898,-780.762,8.789,-13.672,0
1539631203.634,-7.324,-152.832,-324.707,-4.395,5.371,0
1539631203.638,-8.301,94.727,-56.152,0.000,32.715,0
1539631203.642,1.465,35.156,-87.891,0.977,67.871,0
1539631203.646,8.301,162.598,31.738,-0.977,104.492,0
1539631203.650,12.207,236.816,101.074,0.488,30.273,0
1539631203.654,16.113,126.465,9.277,5.371,34.668,0
1539631203.657,17.090,34.668,-78.125,7.324,74.707,0
1539631203.661,22.461,91.309,-39.551,6.836,52.734,0
1539631203.665,26.367,-16.113,-130.859,6.348,33.691,0
1539631203.669,26.367,-229.004,-320.801,16.113,60.547,0
1539631203.673,28.809,-508.301,-580.078,20.508,85.938,0
1539631203.677,29.297,-389.160,-507.324,12.207,30.273,0
1539631203.681,29.297,46.387,-102.539,15.625,25.391,0
1539631203.685,28.809,6.348,-98.633,20.020,50.293,0
1539631203.689,29.297,-242.676,-323.730,28.809,28.320,0
1539631203.693,26.855,-110.352,-225.098,28.809,7.324,0
1539631203.697,24.902,107.910,-17.578,22.949,13.672,0
1539631203.700,17.578,87.402,-12.695,22.461,68.848,0
1539631203.704,10.254,62.500,-32.715,16.113,82.031,0
1539631203.708,15.625,44.922,-60.547,12.207,-13.672,0
1539631203.712,22.461,-51.270,-146.484,15.137,9.277,0
1539631203.716,26.367,-431.152,-476.074,11.230,35.645,0
1539631203.720,16.602,-655.273,-705.566,1.465,-13.184,0
1539631203.724,10.254,-226.562,-346.191,-2.930,-9.766,0
1539631203.728,14.160,111.328,0.488,-2.930,67.871,0
1539631203.732,6.836,92.285,10.742,-2.930,99.609,0
1539631203.736,-2.441,34.180,-57.617,-4.883,23.926,0
1539631203.739,-6.836,186.523,80.078,-9.766,51.270,0
1539631203.743,-3.418,142.090,60.059,-12.695,97.168,0
1539631203.747,-5.859,-34.668,-109.863,-11.230,68.359,0
1539631203.751,-11.230,31.250,-69.824,-9.277,45.898,0
1539631203.755,-10.742,64.453,-41.016,-5.859,3.906,0
1539631203.759,-3.906,-148.926,-215.820,2.441,16.113,0
1539631203.763,5.371,-601.562,-633.301,5.859,30.762,0
1539631203.767,0.000,-461.914,-546.387,-3.418,29.297,0
1539631203.771,0.977,66.895,-46.875,-1.465,83.008,0
1539631203.775,7.812,24.902,-49.805,11.230,56.641,0
1539631203.779,11.230,-83.008,-154.297,10.254,18.555,0
1539631203.782,11.230,65.430,-34.668,8.789,20.020,0
1539631203.786,6.836,86.914,-11.719,14.160,-1.953,0
1539631203.790,3.418,-31.738,-122.559,9.766,8.789,0
1539631203.794,4.883,-39.062,-130.859,4.883,100.098,0
1539631203.798,2.441,88.867,-14.160,5.371,95.703,0
1539631203.802,-3.906,42.969,-46.875,7.324,63.965,0
1539631203.806,-8.789,-249.023,-311.035,9.277,52.734,0
1539631203.810,-8.789,-349.121,-423.340,5.859,48.340,0
1539631203.814,-6.836,-201.660,-307.617,1.465,-0.488,0
1539631203.818,-9.766,10.742,-102.539,0.000,0.000,0
1539631203.822,-7.324,-295.898,-352.539,2.930,29.785,0
1539631203.825,-9.277,-442.383,-511.230,-4.883,25.391,0
1539631203.829,-19.531,37.598,-87.402,-12.207,66.895,0
1539631203.833,-20.020,180.176,80.078,-7.324,102.051,0
1539631203.837,-21.973,44.434,-38.086,-4.395,74.219,0
1539631203.841,-19.531,85.938,-17.578,-2.441,79.102,0
1539631203.845,-12.207,189.453,72.266,0.977,65.430,0
1539631203.849,-8.789,153.320,55.664,7.324,88.867,0
1539631203.853,-6.348,-111.328,-181.641,10.742,69.336,0
1539631203.857,-4.395,-270.020,-352.539,8.301,54.688,0
1539631203.861,0.977,-141.113,-253.418,6.836,81.055,0
1539631203.864,5.859,-110.840,-204.102,13.672,70.312,0
1539631203.868,5.371,-428.711,-481.445,16.113,76.660,0
1539631203.872,-0.488,-288.574,-394.531,8.301,58.594,0
1539631203.876,-0.488,69.824,-61.523,4.883,16.602,0
1539631203.880,6.836,-7.812,-104.004,10.254,14.648,0
1539631203.884,8.301,-26.855,-120.605,13.672,39.062,0
1539631203.888,4.395,99.121,-14.160,10.254,20.508,0
1539631203.892,-0.977,134.766,22.461,7.812,14.648,0
1539631203.896,0.000,52.734,-50.781,2.441,19.531,0
1539631203.900,6.836,-129.883,-220.703,8.301,31.738,0
1539631203.904,15.137,-240.723,-329.590,19.531,41.504,0
1539631203.907,21.973,-35.156,-152.832,14.648,37.109,0
1539631203.911,27.344,-207.520,-280.762,13.672,56.641,0
1539631203.915,24.902,-519.531,-580.078,11.719,11.719,0
1539631203.919,12.207,-168.457,-290.039,3.418,43.945,0
1539631203.923,13.184,13.672,-97.656,6.836,61.035,0
1539631203.927,19.043,-43.945,-143.066,11.230,17.578,0
1539631203.931,11.719,72.266,-42.969,8.789,47.852,0
1539631203.935,8.301,141.113,19.043,5.859,2.930,0
1539631203.939,15.137,24.902,-82.520,11.719,4.883,0
1539631203.943,23.438,-30.762,-133.789,18.555,33.203,0
1539631203.947,24.414,-100.098,-200.195,18.555,44.922,0
1539631203.950,14.648,-169.922,-277.344,13.184,25.879,0
1539631203.954,12.207,-180.664,-283.203,10.254,13.672,0
1539631203.958,14.648,-470.215,-536.133,9.277,51.270,0
1539631203.962,9.277,-331.055,-445.312,3.906,21.973,0
1539631203.966,11.230,91.797,-52.734,7.812,19.043,0
1539631203.970,11.230,67.871,-42.969,10.742,59.570,0
1539631203.974,9.277,-1.465,-105.469,9.766,46.387,0
1539631203.978,11.719,13.184,-104.980,10.254,12.207,0
1539631203.982,7.812,95.703,-31.250,5.371,48.340,0
1539631203.986,3.906,95.215,-23.438,8.789,53.711,0
1539631203.989,7.812,21.973,-95.703,15.625,16.113,0
1539631203.993,16.602,-86.914,-192.871,18.555,23.438,0
1539631203.997,13.672,-74.707,-194.824,13.672,47.363,0
1539631204.001,9.766,-235.840,-324.707,9.277,51.758,0
1539631204.005,13.184,-541.504,-609.375,8.789,45.898,0
1539631204.009,17.090,-89.844,-228.516,6.348,76.660,0
1539631204.013,21.973,190.918,61.523,8.789,58.594,0
1539631204.017,23.438,107.422,6.348,15.625,72.754,0
1539631204.021,21.973,161.621,51.758,15.137,77.148,0
1539631204.025,21.973,229.492,111.328,8.301,21.973,0
1539631204.029,24.414,170.898,64.453,13.184,17.090,0
1539631204.032,24.414,-64.453,-145.020,15.625,-5.859,0
1539631204.036,18.555,-189.453,-276.367,7.812,-12.207,0
1539631204.040,13.184,-147.461,-249.512,7.812,15.137,0
1539631204.044,18.555,-183.105,-259.766,16.602,64.453,0
1539631204.048,21.484,-461.426,-506.836,17.578,59.082,0
1539631204.052,8.301,-321.289,-412.598,9.277,28.809,0
1539631204.056,9.277,154.785,29.785,11.230,58.105,0
1539631204.060,23.926,116.211,26.855,16.113,43.457,0
1539631204.064,24.414,24.902,-58.105,15.137,18.066,0
1539631204.068,15.625,207.031,98.633,15.137,51.758,0
1539631204.072,7.812,275.391,172.852,11.230,67.871,0
1539631204.075,12.695,125.488,37.598,13.672,37.598,0
1539631204.079,21.484,28.809,-72.754,15.625,2.930,0
1539631204.083,18.555,79.102,-32.715,17.090,-18.066,0
1539631204.087,10.254,-42.969,-136.230,21.484,-5.371,0
1539631204.091,10.254,-462.402,-515.625,20.020,21.484,0
1539631204.095,12.695,-590.820,-654.785,13.184,36.621,0
1539631204.099,1.465,-134.277,-263.184,2.930,14.648,0
1539631204.103,-1.465,141.113,21.484,1.953,57.617,0
1539631204.107,4.883,103.516,12.207,2.441,101.562,0
1539631204.111,6.348,80.078,-22.461,-0.977,38.574,0
1539631204.114,4.395,193.848,73.730,-2.441,22.461,0
1539631204.118,0.488,175.781,69.824,1.953,61.035,0
1539631204.122,2.930,31.250,-59.570,9.766,54.688,0
1539631204.126,6.348,36.621,-72.754,9.766,19.531,0
1539631204.130,0.000,155.273,32.715,5.371,45.898,0
1539631204.134,6.348,-6.836,-91.797,13.672,74.219,0
1539631204.138,11.719,-519.531,-561.523,11.719,58.594,0
1539631204.142,3.906,-413.574,-512.207,-6.836,45.410,0
1539631204.146,6.348,50.293,-90.332,-12.207,29.785,0
1539631204.150,8.301,-33.691,-133.789,-6.348,34.180,0
1539631204.154,10.254,-121.582,-217.773,-2.930,41.504,0
1539631204.157,9.766,109.375,-13.672,-15.137,57.617,0
1539631204.161,1.953,212.402,94.727,-20.508,39.551,0
1539631204.165,-0.488,43.457,-58.594,-19.043,2.930,0
1539631204.169,1.465,-60.547,-160.645,-13.672,15.137,0
1539631204.173,4.883,51.758,-65.430,-5.859,24.902,0
1539631204.177,14.648,123.535,10.742,-1.953,40.039,0
1539631204.181,23.926,-34.180,-116.699,6.836,71.289,0
1539631204.185,14.648,-264.648,-338.379,2.441,62.500,0
1539631204.189,12.207,-203.125,-308.594,-4.395,-7.812,0
1539631204.193,21.484,-19.043,-128.418,3.418,-8.789,0
1539631204.197,19.043,-111.816,-198.730,3.418,18.555,0
1539631204.200,13.184,-98.145,-194.824,1.465,36.133,0
1539631204.204,9.766,62.988,-43.457,2.930,20.508,0
1539631204.208,8.301,-29.785,-114.258,3.906,25.391,0
1539631204.212,13.184,-476.562,-528.320,4.883,-34.180,0
1539631204.216,9.766,-541.504,-620.117,1.465,-43.457,0
1539631204.220,-2.441,-141.602,-253.906,2.930,2.930,0
1539631204.224,0.488,-0.488,-94.727,7.324,33.691,0
1539631204.228,8.789,-35.645,-103.516,11.230,86.426,0
1539631204.232,7.324,-159.180,-226.562,16.113,29.785,0
1539631204.236,6.348,-59.082,-154.785,11.719,45.410,0
1539631204.239,14.160,13.672,-70.312,15.625,65.918,0
1539631204.243,21.973,-370.117,-415.039,25.391,35.645,0
1539631204.247,18.066,-235.840,-334.473,21.484,31.250,0
1539631204.251,11.719,187.988,65.430,20.508,56.641,0
1539631204.255,9.277,102.539,12.695,20.508,59.570,0
1539631204.259,11.230,44.922,-51.270,20.020,56.152,0
1539631204.263,14.648,199.219,84.961,17.578,44.922,0
1539631204.267,10.254,94.727,-6.836,12.207,20.020,0
1539631204.271,6.836,-83.496,-184.082,14.648,-3.906,0
1539631204.275,15.137,-139.160,-238.770,16.113,39.062,0
1539631204.279,18.555,-188.965,-287.109,12.695,42.480,0
1539631204.282,16.113,-103.516,-227.539,8.789,-19.043,0
1539631204.286,21.973,-271.973,-355.469,12.695,41.992,0
1539631204.290,27.344,-427.734,-500.488,11.230,82.031,0
1539631204.294,25.879,29.297,-113.770,0.977,40.527,0
1539631204.298,21.973,222.656,95.215,5.371,53.223,0
1539631204.302,16.113,77.637,-21.484,9.766,54.688,0
1539631204.306,10.254,113.770,-4.395,0.977,53.711,0
1539631204.310,14.160,273.438,137.207,-0.977,59.082,0
1539631204.314,14.648,214.844,100.098,7.324,54.688,0
1539631204.318,6.348,61.523,-39.062,12.207,38.086,0
1539631204.322,4.883,-89.355,-183.594,9.766,37.109,0
1539631204.325,6.836,-218.750,-313.477,8.789,19.043,0
1539631204.329,3.906,-280.273,-369.141,10.254,12.207,0
1539631204.333,1.465,-544.922,-607.910,10.742,17.090,0
1539631204.337,-0.488,-334.961,-444.336,8.301,27.344,0
1539631204.341,8.301,169.922,36.621,6.836,80.078,0
1539631204.345,13.184,133.789,37.109,9.277,56.641,0
1539631204.349,9.277,31.738,-62.500,13.672,13.672,0
1539631204.353,8.301,235.840,120.605,17.578,60.547,0
1539631204.357,17.090,325.684,216.797,25.391,83.008,0
1539631204.361,24.414,203.613,105.957,22.461,67.871,0
1539631204.364,19.531,106.445,2.441,22.949,28.809,0
1539631204.368,13.672,-14.648,-115.234,28.320,8.301,0
1539631204.372,16.113,-102.051,-195.312,25.879,63.477,0
1539631204.376,21.973,-312.012,-377.441,21.484,86.426,0
1539631204.380,25.879,-530.762,-587.402,17.578,50.293,0
1539631204.384,19.531,-237.305,-345.703,16.602,26.855,0
1539631204.388,13.184,38.574,-75.684,14.160,26.855,0
1539631204.392,21.484,5.859,-85.938,14.648,15.625,0
1539631204.396,28.320,23.438,-78.613,17.090,-19.531,0
1539631204.400,27.832,201.660,90.820,19.531,4.883,0
1539631204.404,25.391,230.469,139.160,19.531,74.219,0
1539631204.407,26.367,158.203,75.195,16.113,103.027,0
1539631204.411,27.832,254.883,154.785,9.277,103.516,0
1539631204.415,22.949,182.617,96.191,8.301,92.773,0
1539631204.419,20.508,-160.645,-217.285,12.207,31.738,0
1539631204.423,16.113,-482.910,-535.156,9.277,11.230,0
1539631204.427,11.230,-307.129,-404.785,-0.488,62.012,0
1539631204.431,14.160,121.582,-1.953,0.488,81.543,0
1539631204.435,17.090,63.477,-25.391,5.859,46.387,0
1539631204.439,5.859,-185.547,-247.070,0.000,56.152,0
1539631204.443,3.418,-92.285,-187.500,-2.930,37.109,0
1539631204.447,14.160,103.027,-11.719,5.859,1.953,0
1539631204.450,14.160,33.691,-65.430,11.230,-22.949,0
1539631204.454,7.812,-4.395,-102.051,8.789,3.906,0
1539631204.458,11.230,111.328,7.812,11.230,8.789,0
1539631204.462,26.367,58.105,-26.855,18.555,21.973,0
1539631204.466,25.391,-340.820,-374.023,22.949,27.832,0
1539631204.470,13.184,-499.512,-535.645,21.484,55.176,0
1539631204.474,14.648,66.895,-26.855,15.625,133.789,0
1539631204.478,21.973,268.066,188.965,15.625,62.988,0
1539631204.482,24.902,62.988,7.324,18.555,-3.906,0
1539631204.486,20.996,15.137,-55.664,18.555,-18.066,0
1539631204.489,15.137,177.734,97.656,11.230,28.320,0
1539631204.493,17.578,176.270,112.793,12.207,34.180,0
1539631204.497,20.996,-106.934,-145.996,10.254,-24.414,0
1539631204.501,13.184,-220.703,-274.414,0.977,-30.273,0
1539631204.505,9.766,-15.137,-94.727,-1.465,7.812,0
1539631204.509,16.113,-112.305,-153.809,5.371,4.883,0
1539631204.513,13.672,-557.129,-554.688,5.859,7.812,0
1539631204.517,6.348,-442.871,-484.375,-0.977,-1.953,0
1539631204.521,0.488,8.789,-68.359,0.000,1.953,0
1539631204.525,0.000,-20.508,-57.617,4.395,5.859,0
1539631204.529,1.953,-48.340,-76.172,6.348,25.879,0
1539631204.532,-3.418,197.754,149.902,1.465,81.055,0
1539631204.536,1.953,195.801,161.621,2.441,19.043,0
1539631204.540,10.254,54.199,33.203,8.301,18.066,0
1539631204.544,7.324,94.727,70.312,8.301,92.285,0
1539631204.548,2.441,194.824,159.180,3.418,67.383,0
1539631204.552,-1.953,148.926,122.559,0.000,31.738,0
1539631204.556,-5.859,-125.488,-126.953,0.488,10.254,0
1539631204.560,8.301,-371.582,-368.652,3.906,-11.230,0
1539631204.564,19.043,-369.141,-380.859,4.883,-24.902,0
1539631204.568,12.695,-147.949,-179.199,3.906,-16.113,0
1539631204.572,13.672,-280.762,-267.090,11.230,54.199,0
1539631204.575,15.137,-417.480,-405.762,12.695,44.434,0
1539631204.579,12.695,39.551,-5.371,9.766,32.715,0
1539631204.583,15.137,149.414,125.488,21.484,43.457,0
1539631204.587,12.695,101.074,92.773,26.367,93.750,0
1539631204.591,14.160,109.863,90.332,18.555,49.316,0
1539631204.595,21.484,188.477,153.809,18.555,44.922,0
1539631204.599,20.508,179.688,160.156,21.484,84.961,0
1539631204.603,20.020,-169.434,-164.551,19.043,1.465,0
1539631204.607,23.926,-345.215,-363.770,14.648,2.930,0
1539631204.611,28.809,-99.609,-156.250,8.301,53.223,0
1539631204.614,25.879,-77.148,-103.027,10.742,73.242,0
1539631204.618,20.020,-532.715,-518.555,17.578,30.762,0
1539631204.622,16.113,-358.398,-405.273,5.859,37.109,0
1539631204.626,18.555,105.957,34.668,4.883,67.383,0
1539631204.630,19.043,16.113,-18.555,14.160,39.551,0
1539631204.634,3.418,-47.852,-82.520,6.836,28.320,0
1539631204.638,-1.953,7.324,-41.016,1.465,21.484,0
1539631204.642,9.277,34.180,-19.043,2.930,30.273,0
1539631204.646,11.230,8.789,-42.969,6.348,15.137,0
1539631204.650,6.836,-83.496,-123.535,8.789,82.031,0
1539631204.654,5.859,-125.000,-168.457,10.254,98.633,0
1539631204.657,12.695,51.758,-18.555,9.766,61.523,1
1539631204.661,16.602,-171.875,-204.102,9.277,55.664,0
1539631204.665,9.277,-436.523,-466.797,8.301,69.336,0
1539631204.669,5.371,-17.578,-114.746,4.395,46.387,0
1539631204.673,13.672,20.020,-46.875,10.742,62.012,0
1539631204.677,20.508,-113.281,-169.434,12.207,55.176,0
1539631204.681,19.531,-6.836,-96.191,6.348,-13.672,0
1539631204.685,14.160,71.777,-23.438,8.301,-48.340,0
1539631204.689,18.555,62.012,-15.137,10.742,20.020,0
1539631204.693,30.762,30.273,-38.574,17.090,52.246,0
1539631204.697,29.297,-77.637,-145.508,19.043,31.250,0
1539631204.700,22.461,-133.789,-213.379,13.672,27.832,0
1539631204.704,20.996,-79.590,-155.762,16.113,49.316,0
1539631204.708,24.902,-418.945,-458.496,14.648,44.434,0
1539631204.712,26.367,-264.648,-355.957,4.395,62.012,0
1539631204.716,18.066,176.270,55.664,4.883,56.641,0
1539631204.720,3.906,65.430,-20.020,9.766,37.598,0
1539631204.724,1.953,24.414,-65.430,9.277,61.523,0
1539631204.728,11.230,114.746,6.836,5.859,6.348,0
1539631204.732,13.184,19.531,-79.102,5.859,-38.086,0
1539631204.736,8.301,-98.633,-201.172,7.324,-38.574,0
1539631204.739,7.324,-54.199,-165.527,2.441,5.371,0
1539631204.743,11.719,-34.180,-137.207,1.465,32.227,0
1539631204.747,10.254,-194.824,-279.297,4.883,15.137,0
1539631204.751,1.953,-236.328,-324.707,1.953,50.293,0
1539631204.755,-0.977,-13.184,-123.535,-3.906,101.562,0
1539631204.759,3.418,219.727,96.680,-5.859,91.797,0
1539631204.763,1.465,308.105,185.547,-7.324,56.152,0
1539631204.767,-2.441,-117.188,-183.105,-5.371,71.777,0
1539631204.771,-1.465,-431.641,-508.301,-5.371,29.785,0
1539631204.775,0.977,33.691,-113.770,-3.906,43.945,0
1539631204.779,8.789,149.414,25.879,5.371,48.340,0
1539631204.782,13.672,-30.762,-138.184,8.301,-4.883,0
1539631204.786,9.766,-14.648,-133.301,4.395,6.348,0
1539631204.790,16.113,-120.605,-229.492,8.789,-30.762,0
1539631204.794,25.879,-250.977,-339.844,16.602,-0.488,0
1539631204.798,17.090,-476.562,-541.992,13.672,60.059,0
1539631204.802,7.812,-314.941,-426.270,6.836,29.297,0
1539631204.806,10.742,110.840,-27.832,4.395,12.695,0
1539631204.810,19.531,141.602,33.203,4.883,67.871,0
1539631204.814,28.320,90.820,-15.137,10.254,47.852,0
1539631204.818,20.020,172.363,43.457,5.859,-10.742,0
1539631204.822,14.160,218.262,89.844,3.418,12.207,0
1539631204.825,26.367,76.172,-37.109,9.766,2.441,0
1539631204.829,30.762,-42.969,-164.062,12.695,-51.758,0
1539631204.833,20.508,62.012,-69.824,13.184,-20.020,0
1539631204.837,16.602,4.883,-103.516,15.137,32.715,0
1539631204.841,20.996,-398.926,-468.262,17.090,17.578,0
1539631204.845,21.484,-622.559,-693.848,14.648,16.602,0
1539631204.849,13.672,-298.340,-419.922,8.301,61.523,0
1539631204.853,5.859,60.059,-72.266,5.859,90.332,0
1539631204.857,4.883,73.730,-44.434,4.395,47.852,0
1539631204.861,7.324,166.016,40.039,0.000,74.219,0
1539631204.864,8.301,287.109,152.344,3.418,33.203,0
1539631204.868,0.977,172.852,54.199,10.254,1.465,0
1539631204.872,2.930,58.105,-48.340,6.836,39.551,0
1539631204.876,14.160,104.492,-18.066,6.836,33.691,0
1539631204.880,24.902,149.902,21.973,12.207,-3.418,0
1539631204.884,23.438,-56.152,-149.902,18.555,14.160,0
1539631204.888,17.090,-467.773,-524.902,21.973,72.754,0
1539631204.892,13.672,-349.121,-460.938,11.719,51.270,0
1539631204.896,17.090,70.801,-79.102,7.324,9.277,0
1539631204.900,17.090,86.426,-23.438,11.719,50.781,0
1539631204.904,11.719,-105.957,-192.383,12.695,53.223,0
1539631204.907,14.160,-56.641,-174.805,6.836,13.672,0
1539631204.911,12.695,180.176,45.898,2.930,36.133,0
1539631204.915,12.207,122.070,9.766,3.418,40.527,0
1539631204.919,12.207,12.695,-97.168,-0.488,23.926,0
1539631204.923,11.719,92.285,-32.715,-4.883,18.555,0
1539631204.927,16.602,159.180,35.645,-0.977,34.180,0
1539631204.931,13.184,0.977,-100.098,5.371,32.715,0
1539631204.935,7.324,-229.004,-321.777,3.906,14.160,0
1539631204.939,5.371,-82.031,-199.707,-7.324,64.941,0
1539631204.943,10.742,210.938,78.613,-9.277,85.938,0
1539631204.947,21.973,-156.250,-230.469,5.859,57.129,0
1539631204.950,20.508,-472.656,-542.969,8.789,43.457,0
1539631204.954,9.277,-60.059,-200.195,-0.977,25.391,0
1539631204.958,14.648,102.051,-20.020,1.465,34.668,0
1539631204.962,22.949,-95.215,-182.617,13.184,37.109,0
1539631204.966,18.555,-51.758,-158.203,14.160,43.945,0
1539631204.970,15.137,194.824,73.730,10.254,65.918,0
1539631204.974,17.090,153.320,58.594,10.742,54.199,0
1539631204.978,21.973,-55.176,-126.953,15.137,66.406,0
1539631204.982,20.508,-196.289,-287.598,15.625,13.184,0
1539631204.986,16.602,0.977,-124.023,16.113,34.180,0
1539631204.989,16.602,126.465,28.809,20.996,124.023,0
1539631204.993,20.508,-310.059,-366.699,22.949,80.078,0
1539631204.997,15.137,-209.473,-318.848,15.137,79.590,0
1539631205.001,7.812,136.719,6.836,11.230,52.734,0
1539631205.005,9.766,-39.551,-141.602,15.625,-6.348,0
1539631205.009,18.066,-104.004,-210.938,14.160,6.836,0
1539631205.013,14.648,114.258,-16.602,10.254,36.133,0
1539631205.017,7.324,208.984,84.961,8.789,64.941,0
1539631205.021,11.230,11.719,-90.332,12.695,27.832,0
1539631205.025,20.020,-237.305,-334.961,21.484,-18.066,0
1539631205.029,22.461,-287.109,-393.555,16.113,7.812,0
1539631205.032,15.625,-66.895,-191.406,10.742,62.988,0
1539631205.036,12.207,-283.691,-359.863,12.695,39.062,0
1539631205.040,8.301,-604.004,-673.828,8.301,-28.320,0
1539631205.044,6.348,-89.355,-233.887,1.465,12.695,0
1539631205.048,11.230,134.277,9.277,3.418,12.695,0
1539631205.052,14.648,57.129,-42.969,10.742,57.129,0
1539631205.056,16.113,165.527,49.316,7.324,95.703,0
1539631205.060,12.207,226.074,108.887,3.906,77.637,0
1539631205.064,9.766,107.910,7.812,9.766,53.223,0
1539631205.068,3.418,9.277,-90.820,5.371,18.555,0
1539631205.072,2.930,-67.383,-169.434,1.953,50.293,0
1539631205.075,8.301,-196.289,-297.852,3.418,26.367,0
1539631205.079,9.277,-254.395,-349.609,1.953,40.527,0
1539631205.083,7.324,-489.258,-563.477,0.488,54.688,0
1539631205.087,4.395,-354.004,-474.609,-2.441,2.930,0
1539631205.091,7.812,107.422,-41.016,0.488,25.879,0
1539631205.095,14.648,159.180,51.758,7.324,85.938,0
1539631205.099,17.090,103.027,-0.488,8.301,59.570,0
1539631205.103,11.719,222.168,95.215,7.324,31.250,0
1539631205.107,17.090,227.051,104.980,18.066,13.184,0
1539631205.111,20.996,125.977,12.695,23.438,32.715,0
1539631205.114,17.090,100.586,-9.766,22.949,56.152,0
1539631205.118,18.555,-20.996,-123.535,30.762,26.367,0
1539631205.122,13.672,-139.648,-244.141,29.785,27.832,0
1539631205.126,13.672,-372.070,-439.941,21.484,63.477,0
1539631205.130,14.160,-495.117,-569.824,15.625,48.340,0
1539631205.134,-0.488,-102.539,-230.957,6.836,56.152,0
1539631205.138,-1.953,-59.570,-166.504,4.883,8.789,0
1539631205.142,6.836,-104.492,-209.961,7.812,2.930,0
1539631205.146,9.766,52.734,-73.730,8.301,31.738,0
1539631205.150,5.859,187.012,51.758,8.789,10.254,0
1539631205.154,8.789,191.895,83.496,12.695,63.477,0
1539631205.157,14.160,-4.395,-99.121,11.230,-1.953,0
1539631205.161,13.672,15.625,-105.957,6.836,-19.531,0
1539631205.165,16.113,-23.926,-137.207,9.766,5.859,0
1539631205.169,12.207,-212.891,-299.316,12.695,23.926,0
1539631205.173,10.742,-506.348,-570.312,11.230,49.805,0
1539631205.177,13.672,-344.238,-458.008,6.348,36.621,0
1539631205.181,11.230,184.082,41.016,9.277,71.289,0
1539631205.185,9.277,117.188,17.578,13.184,49.805,0
1539631205.189,6.836,-4.883,-102.539,11.230,17.090,0
1539631205.193,11.230,77.148,-31.250,14.160,23.926,0
1539631205.197,14.648,22.461,-77.637,19.043,2.930,0
1539631205.200,13.672,-43.457,-145.996,23.926,-20.508,0
1539631205.204,13.184,-18.066,-125.488,26.855,6.836,0
1539631205.208,14.648,114.746,2.441,20.996,29.785,0
1539631205.212,15.625,56.641,-37.598,22.461,34.180,0
1539631205.216,19.531,-389.648,-437.500,24.414,5.371,0
1539631205.220,19.043,-651.367,-708.008,19.043,-31.250,0
1539631205.224,10.742,-143.555,-268.066,9.766,29.297,0
1539631205.228,14.648,129.395,19.531,7.324,22.949,0
1539631205.232,20.020,5.371,-78.125,11.719,-4.883,0
1539631205.236,12.695,45.898,-54.688,8.789,22.461,0
1539631205.239,10.742,231.445,115.723,2.441,54.199,0
1539631205.243,17.578,243.652,147.949,7.324,69.336,0
1539631205.247,19.531,155.762,74.707,12.207,83.008,0
1539631205.251,20.508,24.414,-58.105,15.137,49.316,0
1539631205.255,20.508,-53.711,-147.461,19.531,-33.203,0
1539631205.259,23.926,-131.348,-209.961,21.484,-8.301,0
1539631205.263,24.902,-458.984,-513.184,16.113,19.531,0
1539631205.267,14.648,-245.117,-348.145,7.324,54.199,0
1539631205.271,12.695,64.453,-45.410,13.184,57.129,0
1539631205.275,22.949,-7.812,-87.402,22.949,67.871,0
1539631205.279,29.785,74.219,-13.184,20.508,104.980,0
1539631205.282,26.855,266.113,158.691,19.531,94.238,0
1539631205.286,17.578,266.602,164.062,17.578,54.199,0
1539631205.290,19.043,41.016,-48.340,16.113,-0.488,0
1539631205.294,23.438,-54.688,-148.926,15.625,-7.812,0
1539631205.298,15.625,59.082,-48.828,9.766,3.418,0
1539631205.302,11.719,111.328,11.719,8.301,30.273,0
1539631205.306,15.137,-79.102,-149.414,12.207,46.875,0
1539631205.310,21.484,-279.297,-343.262,16.113,43.457,0
1539631205.314,21.973,-154.785,-236.328,14.160,68.848,0
1539631205.318,14.160,110.840,15.625,14.160,60.547,0
1539631205.322,12.207,-185.547,-228.516,15.625,55.664,0
1539631205.325,12.695,-331.543,-375.000,8.789,94.727,0
1539631205.329,13.672,47.363,-51.270,8.789,41.992,0
1539631205.333,13.184,104.004,21.484,13.184,17.090,0
1539631205.337,15.625,6.836,-59.570,11.719,34.668,0
1539631205.341,19.043,23.926,-59.570,10.254,6.348,0
1539631205.345,20.996,163.086,67.383,6.348,38.574,0
1539631205.349,17.090,140.625,65.430,10.254,56.152,0
1539631205.353,12.207,-174.805,-224.121,25.391,7.812,0
1539631205.357,13.672,-215.820,-287.109,22.949,37.109,0
1539631205.361,15.137,43.457,-62.012,15.625,33.691,0
1539631205.364,16.113,31.250,-42.480,20.996,45.898,0
1539631205.368,17.090,-429.199,-453.125,24.414,46.387,0
1539631205.372,11.719,-338.867,-416.992,13.672,35.645,0
1539631205.376,8.789,146.973,38.086,7.324,82.031,0
1539631205.380,15.625,82.520,7.812,12.207,62.500,0
1539631205.384,12.695,-2.441,-74.219,9.766,55.664,0
1539631205.388,9.277,94.238,5.371,7.324,30.762,0
1539631205.392,15.137,143.555,52.246,7.812,22.949,0
1539631205.396,19.043,22.949,-53.711,6.836,6.348,0
1539631205.400,17.090,-184.082,-248.047,11.230,9.277,0
1539631205.404,17.090,-285.645,-347.656,16.113,41.992,0
1539631205.407,21.973,-111.816,-200.195,17.578,27.832,0
1539631205.411,25.391,-253.418,-303.223,20.020,27.832,0
1539631205.415,16.602,-520.020,-553.223,15.137,25.879,0
1539631205.419,5.371,-63.965,-168.457,4.395,38.086,0
1539631205.423,7.812,61.523,-24.902,6.836,21.973,0
1539631205.427,13.184,-82.031,-148.926,12.207,25.879,0
1539631205.431,14.160,103.516,9.277,10.254,84.473,0
1539631205.435,11.719,271.973,171.387,13.184,77.637,0
1539631205.439,8.301,174.805,96.191,20.508,63.477,0
1539631205.443,6.836,74.219,8.301,16.602,77.148,0
1539631205.447,11.719,-59.570,-129.883,15.625,24.414,0
1539631205.450,19.043,-213.867,-286.621,20.020,-6.836,0
1539631205.454,25.391,-352.539,-411.621,22.461,-26.855,0
1539631205.458,29.297,-572.266,-614.746,21.484,41.504,0
1539631205.462,25.879,-266.113,-354.492,10.254,103.027,0
1539631205.466,25.879,176.270,62.012,8.789,58.105,0
1539631205.470,29.785,115.723,37.109,18.066,60.059,0
1539631205.474,27.832,26.855,-49.316,13.672,50.781,0
1539631205.478,22.461,265.625,152.832,9.277,81.543,0
1539631205.482,15.137,252.930,163.574,14.648,93.262,0
1539631205.486,3.418,-27.344,-95.215,15.137,57.617,0
1539631205.489,3.906,52.246,-42.480,11.230,89.844,0
1539631205.493,14.648,-0.977,-88.379,12.695,39.551,0
1539631205.497,13.672,-138.184,-221.191,12.207,18.555,0
1539631205.501,8.789,-353.027,-403.809,9.766,69.336,0
1539631205.505,8.789,-541.992,-596.680,6.348,25.391,0
1539631205.509,9.277,-155.273,-281.250,0.977,-23.926,0
1539631205.513,9.277,83.984,-35.156,0.000,-16.602,0
1539631205.517,7.324,2.930,-88.379,4.883,10.742,0
1539631205.521,7.812,54.199,-47.852,7.812,35.156,0
1539631205.525,12.207,188.965,74.707,8.301,13.672,0
1539631205.529,17.578,159.180,61.035,11.719,20.020,0
1539631205.532,13.184,66.895,-21.973,11.719,39.062,0
1539631205.536,5.371,52.734,-51.270,6.836,5.859,0
1539631205.540,13.184,-74.707,-168.457,7.324,-12.695,0
1539631205.544,20.996,-270.996,-343.262,9.766,14.648,0
1539631205.548,18.555,-586.426,-636.719,6.836,11.230,0
1539631205.552,6.348,-447.754,-546.875,4.883,-2.930,0
1539631205.556,2.441,63.965,-64.941,5.371,43.457,0
1539631205.560,13.184,17.090,-71.289,6.836,15.137,0
1539631205.564,17.090,-30.762,-116.211,6.836,29.297,0
1539631205.568,9.766,155.762,45.898,6.348,36.621,0
1539631205.572,0.000,216.309,104.492,3.906,32.715,0
1539631205.575,10.742,66.895,-29.297,3.418,13.184,0
1539631205.579,18.555,-1.465,-102.051,2.441,12.207,0
1539631205.583,11.230,153.320,41.016,2.441,61.523,0
1539631205.587,6.836,80.566,-13.672,5.371,69.824,0
1539631205.591,16.602,-393.066,-438.965,11.719,34.668,0
1539631205.595,25.879,-601.562,-660.645,16.602,6.348,0
1539631205.599,18.555,-251.953,-367.676,14.160,14.160,0
1539631205.603,17.090,-194.824,-294.922,18.066,-43.457,0
1539631205.607,17.090,-200.684,-300.781,12.207,-43.945,0
1539631205.611,20.508,57.129,-60.059,11.719,62.988,0
1539631205.614,21.484,388.672,269.043,16.602,148.926,0
1539631205.618,17.090,390.625,294.434,20.020,140.625,0
1539631205.622,15.137,104.004,19.531,20.508,49.805,0
1539631205.626,16.602,124.023,9.277,14.160,57.617,0
1539631205.630,14.648,259.277,134.766,11.230,57.617,0
1539631205.634,6.836,-27.832,-115.234,10.254,2.930,0
1539631205.638,0.488,-488.770,-541.992,7.812,70.312,0
1539631205.642,0.488,-388.184,-497.559,4.395,54.199,0
1539631205.646,7.324,78.613,-70.801,8.301,35.645,0
1539631205.650,9.277,10.254,-99.121,14.160,3.418,0
1539631205.654,3.418,-74.707,-176.270,11.230,30.762,0
1539631205.657,9.277,3.418,-110.352,16.113,53.711,0
1539631205.661,11.230,63.477,-59.082,22.949,20.508,0
1539631205.665,11.230,65.918,-49.316,18.066,32.227,0
1539631205.669,7.324,19.043,-92.773,13.672,50.781,0
1539631205.673,4.883,120.117,-4.395,9.277,65.918,0
1539631205.677,14.160,181.152,54.688,7.812,30.762,0
1539631205.681,18.066,-191.406,-265.137,16.113,30.762,0
1539631205.685,15.625,-508.301,-576.660,15.137,32.227,0
1539631205.689,12.207,-136.719,-272.461,8.789,3.418,0
1539631205.693,15.137,21.973,-87.891,5.859,70.312,0
1539631205.697,17.578,-125.977,-208.496,6.836,62.988,0
1539631205.700,14.160,-82.520,-189.453,4.395,1.465,0
1539631205.704,11.230,123.535,10.742,5.371,43.457,0
1539631205.708,13.184,105.469,10.254,9.277,19.531,0
1539631205.712,19.531,-33.691,-117.676,9.766,-6.348,0
1539631205.716,18.555,-146.973,-231.934,12.207,0.977,0
1539631205.720,11.719,-145.508,-244.141,7.812,-40.039,0
1539631205.724,15.137,-109.375,-204.590,6.348,-50.781,0
1539631205.728,13.184,-210.449,-281.738,11.230,13.184,0
1539631205.732,5.371,-250.977,-323.730,9.766,47.363,0
1539631205.736,5.859,-91.797,-193.848,4.395,17.578,0
1539631205.739,6.348,-10.742,-92.285,5.859,37.598,0
1539631205.743,10.254,-377.930,-408.691,7.324,57.617,0
1539631205.747,7.812,-281.250,-358.887,1.465,29.785,0
1539631205.751,1.953,105.957,0.488,0.000,27.832,0
1539631205.755,4.883,32.715,-38.086,6.348,31.250,0
1539631205.759,8.789,-40.039,-108.887,6.348,16.113,0
1539631205.763,18.555,127.930,35.645,4.395,20.508,0
1539631205.767,17.578,151.367,60.547,10.254,-6.836,0
1539631205.771,8.789,55.176,-22.949,9.766,22.461,0
1539631205.775,9.277,-107.910,-166.992,4.395,65.430,0
1539631205.779,14.160,-237.793,-297.852,4.883,50.293,0
1539631205.782,12.695,-5.371,-100.098,5.371,58.594,0
1539631205.786,16.113,-217.285,-267.578,7.812,30.273,0
1539631205.790,20.996,-577.148,-618.652,9.277,-9.277,0
1539631205.794,16.113,-81.055,-199.707,6.348,31.250,0
1539631205.798,20.508,222.656,120.117,10.742,86.914,0
1539631205.802,17.578,136.230,62.012,11.230,107.422,0
1539631205.806,9.766,147.949,58.594,9.277,93.262,0
1539631205.810,11.230,226.074,122.559,11.719,47.363,0
1539631205.814,20.996,156.738,66.895,20.508,44.922,0
1539631205.818,17.578,33.203,-45.410,23.438,46.875,0
1539631205.822,9.766,-85.449,-161.133,17.578,72.754,0
1539631205.825,15.625,-101.074,-192.871,11.719,96.680,0
1539631205.829,19.531,-139.160,-229.004,14.160,11.719,0
1539631205.833,14.648,-488.281,-535.645,15.137,22.461,0
1539631205.837,3.418,-375.000,-466.797,5.859,34.180,0
1539631205.841,8.789,25.391,-102.539,6.836,2.930,0
1539631205.845,20.020,58.594,-36.133,13.184,68.848,0
1539631205.849,15.625,-15.137,-102.051,14.648,47.363,0
1539631205.853,13.184,83.984,-26.367,12.695,6.348,0
1539631205.857,14.160,155.762,43.945,14.160,31.250,0
1539631205.861,20.996,96.680,-5.371,18.555,62.012,0
1539631205.864,23.926,9.277,-93.750,21.484,18.066,0
1539631205.868,21.484,-112.305,-207.031,20.996,7.324,0
1539631205.872,14.648,-267.090,-357.910,21.973,2.930,0
1539631205.876,14.648,-497.559,-563.477,21.484,22.461,0
1539631205.880,25.879,-581.055,-651.367,12.695,39.551,0
1539631205.884,9.766,-100.586,-231.445,2.441,31.250,0
1539631205.888,-3.418,31.250,-72.266,0.977,25.391,0
1539631205.892,6.836,-119.629,-204.102,0.000,26.367,0
1539631205.896,12.207,105.957,-8.789,-0.488,91.309,0
1539631205.900,9.766,316.406,197.754,1.953,90.820,0
1539631205.904,4.395,163.574,76.172,5.859,67.871,1
1539631205.907,6.348,-31.738,-111.816,11.230,51.758,0
1539631205.911,16.113,87.891,-14.160,13.672,41.992,0
1539631205.915,16.602,13.184,-81.055,16.602,18.066,0
1539631205.919,8.301,-207.520,-282.227,17.578,16.602,0
1539631205.923,13.672,-515.625,-564.453,17.578,51.758,0
1539631205.927,15.625,-322.754,-416.016,14.648,87.402,0
1539631205.931,13.672,83.984,-40.039,16.602,14.648,0
1539631205.935,9.766,-16.113,-105.469,16.602,-10.254,0
1539631205.939,4.883,-23.438,-108.887,12.207,66.895,0
1539631205.943,17.578,184.570,65.918,10.742,59.570,0
1539631205.947,25.391,80.566,-31.250,12.695,-11.230,0
1539631205.950,20.996,-183.105,-277.832,14.160,-17.090,0
1539631205.954,16.113,-116.699,-237.305,13.672,19.531,0
1539631205.958,27.832,37.109,-97.168,10.742,0.977,0
1539631205.962,38.086,-53.711,-169.434,10.254,-0.488,0
1539631205.966,36.133,-371.094,-446.289,13.184,72.754,0
1539631205.970,21.973,-463.867,-541.992,11.230,112.793,0
1539631205.974,15.625,-81.543,-219.727,4.883,44.434,0
1539631205.978,18.555,137.207,-2.441,6.348,17.578,0
1539631205.982,11.719,96.191,-20.508,8.301,76.660,0
1539631205.986,2.441,51.758,-71.289,7.324,38.574,0
1539631205.989,-0.488,187.500,46.875,7.324,42.480,0
1539631205.993,8.301,200.195,74.219,7.812,61.523,0
1539631205.997,6.348,53.711,-60.059,7.812,41.016,0
1539631206.001,0.488,67.871,-61.035,1.465,33.203,0
1539631206.005,0.977,10.254,-111.328,0.977,31.250,0
1539631206.009,10.254,-163.574,-257.812,12.695,59.082,0
1539631206.013,18.066,-532.227,-599.121,16.602,39.062,0
1539631206.017,10.742,-479.980,-597.168,10.742,5.371,0
1539631206.021,7.324,13.184,-139.160,7.324,39.551,0
1539631206.025,7.812,-15.625,-125.977,9.766,20.020,0
1539631206.029,14.160,-111.328,-217.285,17.090,-6.348,0
1539631206.032,20.020,48.828,-83.496,18.555,-4.883,0
1539631206.036,15.137,153.320,22.461,23.926,23.438,0
1539631206.040,19.531,38.574,-70.801,19.043,28.320,0
1539631206.044,21.484,-35.645,-150.391,13.672,26.367,0
1539631206.048,15.625,129.395,-5.859,17.090,58.105,0
1539631206.052,17.578,165.039,36.133,13.672,42.969,0
1539631206.056,24.414,-187.988,-281.738,11.719,-1.953,0
1539631206.060,29.785,-434.570,-523.438,11.230,17.090,0
1539631206.064,20.996,-254.883,-374.512,9.277,46.387,0
1539631206.068,10.742,30.762,-104.004,5.371,65.918,0
1539631206.072,14.160,-109.375,-205.566,10.742,76.660,0
1539631206.075,13.184,-205.566,-303.223,13.672,63.965,0
1539631206.079,15.625,121.094,-12.695,11.719,44.434,0
1539631206.083,14.160,140.137,26.855,17.090,27.832,0
1539631206.087,10.254,50.293,-45.410,18.555,58.594,0
1539631206.091,15.625,56.152,-51.758,11.719,30.273,0
1539631206.095,18.555,154.785,35.645,8.789,19.043,0
1539631206.099,16.602,149.414,55.664,5.859,64.941,0
1539631206.103,17.090,-139.160,-199.219,11.719,17.578,0
1539631206.107,12.695,-353.027,-423.828,14.648,-32.227,0
1539631206.111,7.812,-93.262,-200.684,0.488,28.320,0
1539631206.114,8.301,49.805,-32.715,0.977,100.098,0
1539631206.118,9.766,-401.855,-429.688,4.395,78.613,0
1539631206.122,14.648,-523.926,-594.238,-0.488,-30.273,0
1539631206.126,14.160,-157.715,-274.414,4.395,-43.945,0
1539631206.130,13.184,-12.207,-101.562,5.859,38.574,0
1539631206.134,10.254,-23.926,-101.562,0.977,36.133,0
1539631206.138,8.789,101.562,4.883,-2.930,16.602,0
1539631206.142,16.602,227.051,130.371,-1.953,59.570,0
1539631206.146,23.926,197.754,118.164,4.395,88.379,0
1539631206.150,23.926,-39.062,-97.656,7.324,51.270,0
1539631206.154,20.508,-200.195,-260.742,5.371,25.391,0
1539631206.157,18.555,-134.277,-208.984,3.418,33.691,0
1539631206.161,23.438,-177.246,-233.887,6.836,38.574,0
1539631206.165,21.484,-187.012,-247.559,8.789,22.461,0
1539631206.169,14.648,62.012,-22.949,11.719,16.602,0
1539631206.173,16.113,179.688,106.445,21.973,20.996,0
1539631206.177,23.926,-183.594,-200.195,25.879,45.410,0
1539631206.181,23.438,-355.469,-379.883,21.484,71.289,0
1539631206.185,17.090,64.941,-15.137,20.508,67.383,0
1539631206.189,22.949,50.293,-7.812,26.855,-0.977,0
1539631206.193,27.832,-48.828,-91.797,29.785,11.719,0
1539631206.197,27.832,-165.527,-205.078,26.855,-33.203,0
1539631206.200,22.461,-242.188,-284.180,19.531,-13.184,0
1539631206.204,17.090,-126.953,-156.250,18.066,120.605,0
1539631206.208,22.949,-436.523,-436.035,13.672,54.688,0
1539631206.212,21.973,-273.926,-326.660,0.000,54.688,0
1539631206.216,17.578,245.117,162.598,-4.883,106.445,0
1539631206.220,14.648,158.691,115.723,0.000,70.312,0
1539631206.224,20.020,51.758,6.836,4.395,49.805,0
1539631206.228,22.949,209.961,136.719,5.859,41.504,0
1539631206.232,14.648,275.391,202.148,7.324,45.898,0
1539631206.236,10.254,96.680,43.457,5.371,23.438,0
1539631206.239,12.207,-93.750,-143.555,2.930,3.906,0
1539631206.243,13.184,-87.402,-145.020,0.977,49.316,0
1539631206.247,17.090,-130.371,-183.594,3.906,30.762,0
1539631206.251,18.066,-477.539,-493.652,10.742,-20.020,0
1539631206.255,9.766,-648.438,-672.363,1.953,-14.648,0
1539631206.259,9.277,-93.262,-189.941,-6.348,46.387,0
1539631206.263,13.672,218.262,134.766,-1.465,48.828,0
1539631206.267,9.277,20.508,-36.133,1.465,-34.180,0
1539631206.271,2.441,12.695,-59.082,-2.930,-10.742,0
1539631206.275,-0.488,264.160,182.129,-5.371,71.777,0
1539631206.279,5.859,226.074,161.133,2.441,38.574,0
1539631206.282,13.184,32.715,-29.297,5.371,2.441,0
1539631206.286,10.254,106.934,23.926,9.766,48.340,0
1539631206.290,10.254,-51.270,-117.676,15.625,-8.789,0
1539631206.294,10.742,-333.984,-386.230,17.578,-48.828,0
1539631206.298,13.672,-617.188,-656.738,20.508,-24.902,0
1539631206.302,12.695,-465.820,-551.270,15.137,-19.531,0
1539631206.306,9.766,27.832,-87.891,14.160,0.488,0
1539631206.310,16.602,54.199,-21.484,18.066,34.668,0
1539631206.314,16.602,19.043,-51.758,15.137,38.574,0
1539631206.318,8.789,122.559,27.344,14.648,-11.719,0
1539631206.322,7.812,140.625,44.922,16.602,-32.715,0
1539631206.325,16.602,43.457,-41.016,18.066,6.348,0
1539631206.329,18.555,97.168,6.348,13.184,90.820,0
1539631206.333,13.672,154.785,56.641,10.742,31.738,0
1539631206.337,5.371,-27.344,-107.422,14.648,-7.324,0
1539631206.341,2.930,-394.043,-437.988,15.137,33.691,0
1539631206.345,10.254,-564.941,-621.582,10.254,20.996,0
1539631206.349,7.324,-93.750,-212.402,7.324,42.969,0
1539631206.353,5.859,37.598,-52.246,14.648,68.359,0
1539631206.357,9.277,-165.527,-237.793,14.160,9.766,0
1539631206.361,16.113,-46.875,-148.438,10.254,-24.414,0
1539631206.364,17.578,187.500,76.660,14.648,24.414,0
1539631206.368,5.371,203.125,111.816,12.695,45.898,0
1539631206.372,2.930,-41.016,-117.188,15.137,-44.434,0
1539631206.376,8.301,-26.367,-128.906,16.113,-41.016,0
1539631206.380,6.348,196.289,87.402,15.137,47.852,0
1539631206.384,7.812,-23.438,-86.426,24.902,-0.977,0
1539631206.388,9.277,-531.738,-556.152,25.879,21.484,0
1539631206.392,11.230,-386.230,-464.844,12.207,62.012,0
1539631206.396,21.484,8.789,-108.398,12.695,-42.969,0
1539631206.400,24.414,-107.910,-191.406,16.113,-82.520,0
1539631206.404,14.160,-109.375,-188.477,8.789,15.625,0
1539631206.407,11.719,180.664,79.590,1.465,82.031,0
1539631206.411,22.949,133.789,49.316,8.301,53.711,0
1539631206.415,16.113,-33.691,-110.840,15.137,35.156,0
1539631206.419,4.883,-4.395,-102.539,10.254,28.809,0
1539631206.423,12.207,69.824,-44.434,9.766,-5.371,0
1539631206.427,20.996,170.898,57.617,9.766,30.762,0
1539631206.431,29.297,51.270,-34.668,14.160,81.543,0
1539631206.435,26.367,-166.504,-242.188,20.020,81.543,0
1539631206.439,20.508,-20.508,-128.906,11.719,81.055,0
1539631206.443,20.996,227.539,100.098,4.883,62.988,0
1539631206.447,26.367,-111.816,-178.711,10.742,68.848,0
1539631206.450,25.391,-471.680,-534.180,13.184,38.086,0
1539631206.454,12.207,-28.320,-163.086,7.324,57.617,0
1539631206.458,19.531,173.340,55.176,12.207,76.660,0
1539631206.462,31.250,93.750,-12.695,20.508,51.758,0
1539631206.466,29.297,67.871,-38.574,18.555,46.387,0
1539631206.470,23.438,25.879,-77.148,16.113,45.898,0
1539631206.474,20.020,32.715,-75.195,11.230,39.062,0
1539631206.478,19.531,-93.750,-185.547,11.719,41.504,0
1539631206.482,16.602,-175.781,-270.508,15.625,63.965,0
1539631206.486,7.812,25.879,-91.797,12.207,75.684,0
1539631206.489,6.836,39.062,-56.152,8.301,33.691,0
1539631206.493,13.672,-423.340,-478.516,7.812,7.324,0
1539631206.497,14.648,-295.898,-403.809,4.395,35.156,0
1539631206.501,15.625,135.742,4.395,8.789,44.922,0
1539631206.505,14.648,-5.371,-95.215,12.207,7.812,0
1539631206.509,19.043,-96.191,-188.965,11.719,-6.348,0
1539631206.513,25.391,140.137,23.438,9.277,36.621,0
1539631206.517,16.113,277.344,166.016,5.859,82.031,0
1539631206.521,13.184,188.965,97.168,9.277,95.215,0
1539631206.525,25.391,-21.484,-97.656,11.230,91.309,0
1539631206.529,28.320,-124.023,-206.543,10.254,57.617,0
1539631206.532,21.484,-151.367,-245.605,10.742,24.414,0
1539631206.536,20.020,-426.270,-481.445,14.160,41.992,0
1539631206.540,17.578,-561.523,-621.094,13.672,42.480,0
1539631206.544,14.160,-23.438,-149.414,5.859,66.406,0
1539631206.548,17.090,199.707,88.379,12.207,37.109,0
1539631206.552,15.137,126.953,40.527,17.090,76.660,0
1539631206.556,18.555,116.211,18.555,12.695,41.016,0
1539631206.560,20.996,146.973,35.645,13.184,-29.297,0
1539631206.564,22.949,159.668,66.406,21.484,45.410,0
1539631206.568,17.090,67.871,-15.137,17.090,57.617,0
1539631206.572,3.418,-96.680,-177.734,7.812,17.090,0
1539631206.575,3.906,-164.062,-250.488,-1.465,34.180,0
1539631206.579,3.418,-134.277,-218.262,-6.348,31.250,0
1539631206.583,-5.859,-395.020,-450.195,-1.953,-23.926,0
1539631206.587,-12.695,-267.578,-353.516,-9.766,61.035,0
1539631206.591,-4.395,205.566,88.379,-10.742,129.883,0
1539631206.595,4.395,174.316,103.516,-1.465,102.539,0
1539631206.599,2.930,-256.836,-289.062,1.953,83.496,0
1539631206.603,4.883,-129.883,-220.703,1.465,76.660,0
1539631206.607,10.742,227.051,115.723,10.742,87.402,0
1539631206.611,17.578,138.672,54.688,18.555,64.453,0
1539631206.614,14.160,52.734,-29.785,17.090,34.668,0
1539631206.618,6.348,13.184,-65.918,16.113,48.340,0
1539631206.622,6.348,-107.422,-180.176,13.672,33.203,0
1539631206.626,17.578,-402.344,-447.266,15.625,-1.465,0
1539631206.630,19.531,-562.500,-613.770,9.277,-2.930,0
1539631206.634,10.742,-97.656,-208.496,3.418,18.066,0
1539631206.638,16.602,137.207,36.621,9.277,-1.465,0
1539631206.642,22.461,-78.125,-141.113,11.230,-22.949,0
1539631206.646,19.043,-156.250,-234.375,6.836,-61.035,0
1539631206.650,9.277,77.637,-30.762,2.930,-41.016,0
1539631206.654,5.371,143.066,56.152,7.324,28.320,0
1539631206.657,7.324,-5.859,-75.684,3.906,16.602,0
1539631206.661,0.977,24.902,-64.453,2.930,-5.859,0
1539631206.665,-6.348,59.082,-20.996,8.301,68.359,0
1539631206.669,-9.277,-135.254,-189.941,11.230,42.480,0
1539631206.673,-7.812,-527.344,-562.500,15.625,-19.043,0
1539631206.677,-6.348,-365.723,-446.777,4.395,34.668,0
1539631206.681,-9.277,76.660,-36.133,-1.953,1.953,0
1539631206.685,-9.766,88.867,13.184,8.789,46.387,0
1539631206.689,-3.906,44.922,-21.484,13.184,73.730,0
1539631206.693,-1.465,182.129,89.355,7.324,34.180,0
1539631206.697,3.906,292.969,202.148,5.859,65.918,0
1539631206.700,9.277,78.613,11.719,15.137,41.016,0
1539631206.704,12.695,-28.809,-108.887,17.090,22.949,0
1539631206.708,22.461,147.949,53.223,14.648,53.223,0
1539631206.712,38.086,79.590,8.301,23.926,58.594,0
1539631206.716,39.551,-346.680,-375.977,23.438,41.504,0
1539631206.720,36.133,-554.688,-591.309,15.137,39.062,0
1539631206.724,31.738,-94.727,-195.801,9.766,67.383,0
1539631206.728,25.391,178.711,82.520,9.277,44.922,0
1539631206.732,19.043,96.191,24.902,8.301,48.828,0
1539631206.736,10.254,70.801,-6.836,4.395,51.758,0
1539631206.739,8.301,187.012,92.773,2.930,51.758,0
1539631206.743,14.648,208.008,122.559,5.371,48.828,0
1539631206.747,18.066,-50.293,-116.699,12.207,-6.348,0
1539631206.751,9.766,-94.727,-179.688,6.836,-0.977,0
1539631206.755,6.836,107.910,4.883,3.906,36.621,0
1539631206.759,17.090,36.621,-33.691,18.066,78.613,0
1539631206.763,18.555,-375.488,-400.391,20.508,116.699,0
1539631206.767,10.742,-337.402,-404.297,9.766,72.266,0
1539631206.771,3.906,63.965,-42.480,6.836,24.414,0
1539631206.775,9.277,3.418,-66.895,7.324,26.855,0
1539631206.779,20.020,-25.391,-85.938,11.719,65.918,0
1539631206.782,16.113,165.527,81.055,12.695,61.523,0
1539631206.786,7.812,193.848,111.816,8.301,31.250,0
1539631206.790,13.672,51.270,-16.113,12.207,25.879,0
1539631206.794,20.020,20.508,-50.293,14.160,62.500,0
1539631206.798,18.066,165.527,84.473,17.090,85.938,0
1539631206.802,15.625,310.059,229.980,21.973,117.676,0
1539631206.806,24.414,-70.801,-87.891,35.645,116.211,0
1539631206.810,37.598,-431.152,-449.707,41.992,58.594,0
1539631206.814,36.133,-99.121,-179.688,33.203,57.617,0
1539631206.818,29.785,-101.562,-161.133,31.250,-3.906,0
1539631206.822,31.738,-229.980,-285.645,30.273,-37.109,0
1539631206.825,38.574,-48.340,-119.629,26.367,55.664,0
1539631206.829,42.480,174.316,97.168,23.438,53.711,0
1539631206.833,40.039,186.523,125.000,22.949,53.711,0
1539631206.837,32.715,70.801,20.508,20.996,69.824,0
1539631206.841,34.180,31.738,-35.156,25.391,17.090,0
1539631206.845,40.527,134.277,56.152,29.785,23.926,0
1539631206.849,41.992,139.160,81.055,29.785,61.523,0
1539631206.853,41.504,-163.086,-192.871,30.762,25.879,0
1539631206.857,43.945,-299.316,-344.238,30.762,23.438,0
1539631206.861,45.410,-88.379,-170.898,29.297,0.000,0
1539631206.864,43.457,-47.852,-106.445,33.203,-4.883,0
1539631206.868,39.062,-432.617,-441.895,37.598,30.273,0
1539631206.872,34.668,-443.848,-491.211,34.668,14.160,0
1539631206.876,38.086,-149.414,-223.145,33.691,-3.906,0
1539631206.880,33.691,-107.910,-167.969,34.180,5.371,0
1539631206.884,20.508,7.812,-50.781,32.715,74.707,0
1539631206.888,23.438,130.859,57.129,31.738,20.996,0
1539631206.892,34.180,214.355,137.207,31.738,42.969,0
1539631206.896,37.109,181.641,121.582,34.668,75.684,0
1539631206.900,33.203,-141.602,-187.988,37.598,-28.320,0
1539631206.904,28.809,-222.656,-276.855,38.086,36.621,0
1539631206.907,30.273,-76.660,-149.902,39.551,42.480,0
1539631206.911,38.086,-275.879,-312.012,40.039,13.672,0
1539631206.915,36.133,-532.715,-554.199,40.039,1.465,0
1539631206.919,20.508,-105.957,-192.383,34.180,7.812,0
1539631206.923,25.391,109.863,32.715,35.645,7.324,0
1539631206.927,38.086,16.113,-40.527,38.574,10.254,0
1539631206.931,34.668,3.906,-52.734,32.227,42.969,0
1539631206.935,34.180,62.988,-10.254,30.762,18.066,0
1539631206.939,41.016,98.145,21.973,35.645,16.113,0
1539631206.943,46.875,-5.859,-69.824,34.180,-0.488,0
1539631206.947,51.270,-126.465,-187.988,32.715,2.441,0
1539631206.950,41.504,-171.875,-236.328,29.297,48.340,0
1539631206.954,32.715,-114.258,-177.734,24.902,50.781,0
1539631206.958,38.086,-431.152,-463.867,21.484,23.926,0
1539631206.962,33.691,-295.898,-375.000,11.719,54.688,0
1539631206.966,22.461,159.180,51.270,12.695,43.457,0
1539631206.970,18.555,56.641,-11.719,20.508,21.484,0
1539631206.974,18.555,2.441,-64.941,21.484,44.434,0
1539631206.978,23.438,165.039,74.707,20.020,25.391,0
1539631206.982,27.344,259.766,173.828,25.879,49.316,0
1539631206.986,22.461,138.184,69.336,25.879,65.918,0
1539631206.989,21.973,-70.801,-133.789,22.949,26.855,0
1539631206.993,22.461,-183.105,-250.488,25.391,1.953,0
1539631206.997,20.996,-145.996,-225.098,19.531,26.367,0
1539631207.001,16.113,-368.164,-413.574,19.043,24.414,0
1539631207.005,7.324,-565.430,-614.746,16.602,15.625,0
1539631207.009,6.348,-36.621,-156.738,9.766,62.500,0
1539631207.013,12.695,223.633,112.793,14.648,27.344,0
1539631207.017,8.789,100.098,9.277,14.160,15.625,0
1539631207.021,4.883,127.441,12.695,11.719,42.480,0
1539631207.025,12.207,228.516,87.402,13.184,5.859,0
1539631207.029,19.531,145.996,11.230,17.090,-23.926,0
1539631207.032,20.508,20.020,-110.840,21.973,-9.277,0
1539631207.036,12.207,76.172,-72.266,16.113,17.090,0
1539631207.040,5.859,29.297,-114.746,12.695,29.785,0
1539631207.044,17.578,-58.594,-185.547,21.973,95.703,0
1539631207.048,25.391,-363.770,-454.590,21.973,94.727,0
1539631207.052,19.043,-377.930,-508.301,14.648,2.441,0
1539631207.056,19.043,89.844,-85.938,17.578,26.367,0
1539631207.060,27.344,137.207,-0.977,27.344,63.477,0
1539631207.064,30.273,57.617,-66.406,28.809,49.316,0
1539631207.068,29.785,110.840,-35.156,27.344,-14.648,0
1539631207.072,32.715,178.711,32.715,24.902,0.000,0
1539631207.075,35.645,94.238,-38.574,23.926,19.043,0
1539631207.079,30.762,35.645,-103.027,22.949,20.020,0
1539631207.083,20.508,202.148,54.199,15.137,69.824,0
1539631207.087,16.113,169.922,40.527,15.625,109.863,0
1539631207.091,21.484,-253.418,-334.961,23.926,92.285,0
1539631207.095,22.461,-527.344,-616.699,19.043,20.996,0
1539631207.099,15.137,-118.652,-279.297,3.906,35.645,0
1539631207.103,13.672,210.449,59.570,-2.441,98.145,0
1539631207.107,18.066,95.703,-20.508,-2.441,90.332,0
1539631207.111,20.508,19.531,-106.445,-0.977,22.461,0
1539631207.114,10.742,170.898,28.320,0.000,16.113,0
1539631207.118,-3.418,185.547,60.547,-0.977,52.246,0
1539631207.122,-4.883,9.277,-103.027,-5.859,35.156,0
1539631207.126,4.395,43.457,-85.449,-8.301,40.039,0
1539631207.130,4.395,122.070,-10.742,-4.883,8.789,0
1539631207.134,2.930,-46.875,-150.879,2.930,13.184,0
1539631207.138,13.184,-612.793,-664.551,13.672,20.508,0
1539631207.142,21.484,-581.543,-674.316,11.230,65.430,0
1539631207.146,20.508,111.328,-34.668,9.277,126.465,0
1539631207.150,17.578,83.496,-11.719,19.043,34.180,0
1539631207.154,16.113,-33.203,-117.676,20.508,40.039,0
1539631207.157,24.414,188.477,75.195,19.531,85.938,0
1539631207.161,24.414,244.141,136.719,15.137,47.363,0
1539631207.165,12.695,91.309,2.441,10.742,58.105,0
1539631207.169,4.395,-83.008,-169.922,12.695,37.109,0
1539631207.173,12.207,-33.203,-141.113,11.719,16.113,0
1539631207.177,21.973,144.043,25.879,15.625,19.531,0
1539631207.181,21.484,-228.516,-287.598,23.926,-7.324,0
1539631207.185,16.602,-495.605,-549.805,21.484,2.441,0
1539631207.189,12.207,-90.332,-202.637,15.137,36.133,0
1539631207.193,10.254,134.277,25.879,17.090,30.762,0
1539631207.197,6.836,-48.340,-125.488,19.043,20.020,0
1539631207.200,-0.977,-106.445,-189.453,12.695,41.504,0
1539631207.204,-10.742,93.262,-12.207,1.953,21.484,0
1539631207.208,0.977,126.465,32.227,4.395,33.203,0
1539631207.212,14.648,74.219,-8.789,10.254,69.824,0
1539631207.216,21.484,119.629,27.832,12.695,68.848,0
1539631207.220,26.367,163.086,67.871,16.602,46.875,0
1539631207.224,32.715,-52.246,-119.629,20.020,37.109,0
1539631207.228,39.062,-329.590,-386.230,23.926,3.906,0
1539631207.232,41.504,-263.184,-348.145,18.066,20.020,0
1539631207.236,35.645,14.648,-98.145,6.836,41.992,0
1539631207.239,37.109,-18.555,-98.633,10.254,0.977,0
1539631207.243,46.875,-500.000,-533.691,16.602,-27.832,0
1539631207.247,36.621,-379.883,-464.355,11.230,15.625,0
1539631207.251,31.738,85.938,-25.391,10.742,41.016,0
1539631207.255,36.621,-6.348,-77.148,13.672,25.879,0
1539631207.259,31.738,-53.711,-123.047,9.277,51.270,0
1539631207.263,23.438,170.898,78.125,6.348,73.730,0
1539631207.267,21.484,247.070,157.715,11.230,72.754,0
1539631207.271,28.320,118.652,49.316,16.113,69.824,0
1539631207.275,27.832,-112.305,-170.410,21.484,52.246,0
1539631207.279,22.461,-158.203,-224.121,26.855,78.613,0
1539631207.282,20.020,-126.953,-196.289,29.297,78.125,0
1539631207.286,17.578,-415.527,-446.289,33.203,41.504,0
1539631207.290,20.996,-569.824,-609.863,33.203,28.320,0
1539631207.294,26.367,-140.625,-247.559,29.297,-4.883,0
1539631207.298,27.832,120.117,26.367,28.320,21.484,0
1539631207.302,21.973,16.602,-48.340,22.461,21.973,0
1539631207.306,17.090,-45.898,-125.000,19.043,-42.480,0
1539631207.310,14.160,163.574,65.918,18.555,20.020,0
1539631207.314,15.137,233.887,159.668,22.461,86.914,1
1539631207.318,7.812,94.727,36.133,21.484,62.988,0
1539631207.322,2.441,-4.395,-68.359,16.113,83.008,0
1539631207.325,7.324,-79.102,-149.414,15.625,71.777,0
1539631207.329,11.719,-132.324,-201.660,22.949,-6.348,0
1539631207.333,13.672,-446.289,-483.887,23.438,1.953,0
1539631207.337,4.883,-486.328,-547.852,10.742,8.301,0
1539631207.341,7.812,-128.418,-218.750,15.137,23.438,0
1539631207.345,15.625,6.836,-66.406,23.926,55.664,0
1539631207.349,15.625,18.066,-47.363,28.809,38.574,0
1539631207.353,19.043,190.430,104.004,31.738,54.688,0
1539631207.357,30.273,269.531,187.012,33.691,59.570,0
1539631207.361,40.527,94.238,24.902,35.156,-3.906,0
1539631207.364,44.434,-44.434,-119.629,34.668,-45.898,0
1539631207.368,48.828,-61.035,-133.301,34.180,31.738,0
1539631207.372,47.363,-94.238,-169.922,30.273,52.246,0
1539631207.376,45.898,-319.824,-367.676,31.738,24.414,0
1539631207.380,41.504,-559.082,-593.750,29.785,38.574,0
1539631207.384,30.762,-170.898,-273.438,20.508,35.645,0
1539631207.388,34.180,148.438,46.875,20.996,44.434,0
1539631207.392,37.109,67.871,-7.812,21.484,33.203,0
1539631207.396,31.250,-36.133,-107.422,20.020,39.062,0
1539631207.400,31.250,18.066,-69.824,20.508,-2.930,0
1539631207.404,31.250,114.258,25.391,21.973,11.230,0
1539631207.407,24.902,18.066,-56.641,20.508,14.648,0
1539631207.411,21.973,54.199,-36.133,12.207,-0.977,0
1539631207.415,24.902,17.578,-60.547,15.625,21.973,0
1539631207.419,26.367,-162.109,-219.727,22.461,27.344,0
1539631207.423,31.250,-519.531,-555.176,23.926,13.184,0
1539631207.427,27.832,-420.898,-504.883,18.066,5.371,0
1539631207.431,17.090,128.906,8.301,7.324,57.617,0
1539631207.435,8.301,90.820,11.230,5.371,44.922,0
1539631207.439,1.953,-45.898,-121.094,3.906,5.859,0
1539631207.443,7.812,85.938,-15.625,3.906,-10.254,0
1539631207.447,12.695,180.664,78.613,8.301,-4.395,0
1539631207.450,8.789,87.402,6.836,12.207,21.973,0
1539631207.454,10.742,-70.801,-145.020,15.625,46.875,0
1539631207.458,21.484,59.082,-38.574,16.602,70.801,0
1539631207.462,24.902,113.281,23.438,21.484,65.430,0
1539631207.466,14.160,-254.883,-295.898,27.832,66.895,0
1539631207.470,8.789,-477.051,-520.996,19.531,82.031,0
1539631207.474,2.441,-117.188,-229.492,10.742,37.109,0
1539631207.478,6.348,119.629,10.254,16.113,-0.977,0
1539631207.482,14.648,51.270,-35.645,16.602,16.113,0
1539631207.486,8.789,27.832,-70.801,19.043,0.488,0
1539631207.489,10.742,128.906,17.090,19.531,-10.254,0
1539631207.493,27.832,187.012,82.520,20.996,47.852,0
1539631207.497,32.715,104.492,13.184,20.508,52.246,0
1539631207.501,22.949,41.992,-62.012,12.207,-16.113,0
1539631207.505,21.973,63.477,-52.734,9.766,-27.832,0
1539631207.509,31.250,-41.504,-125.977,8.789,38.574,0
1539631207.513,41.992,-540.527,-579.590,9.277,4.395,0
1539631207.517,33.691,-514.160,-603.027,8.301,-10.742,0
1539631207.521,20.996,121.582,-6.348,2.441,117.188,0
1539631207.525,17.578,141.113,61.035,4.883,99.609,0
1539631207.529,19.531,12.695,-57.617,8.789,56.641,0
1539631207.532,21.484,150.391,51.270,15.137,44.434,0
1539631207.536,14.648,169.922,72.754,14.648,8.789,0
1539631207.540,17.090,81.543,-0.488,12.207,49.316,0
1539631207.544,21.973,46.875,-34.668,12.207,60.547,0
1539631207.548,18.555,57.129,-34.180,8.789,-2.930,0
1539631207.552,12.695,94.238,-2.930,8.301,-8.301,0
1539631207.556,23.438,-261.719,-310.059,16.602,11.719,0
1539631207.560,30.273,-536.621,-583.496,18.066,28.809,0
1539631207.564,20.996,-111.328,-221.191,9.766,17.090,0
1539631207.568,21.973,1.953,-83.008,17.090,1.465,0
1539631207.572,23.926,-120.117,-182.617,20.996,58.594,0
1539631207.575,19.043,-6.348,-89.355,17.578,62.988,0
1539631207.579,16.113,198.730,106.934,16.602,58.105,0
1539631207.583,9.277,152.832,80.566,14.160,20.996,0
1539631207.587,4.883,-28.809,-88.379,12.207,-8.789,0
1539631207.591,9.766,-101.074,-170.898,11.230,1.953,0
1539631207.595,8.301,-5.859,-90.820,6.348,16.602,0
1539631207.599,4.883,63.477,-10.254,8.789,24.902,0
1539631207.603,4.395,-141.602,-186.523,13.184,17.578,0
1539631207.607,10.254,-247.559,-294.922,13.672,52.246,0
1539631207.611,16.113,-103.027,-180.664,15.625,9.766,0
1539631207.614,13.672,4.395,-56.641,20.020,28.320,0
1539631207.618,15.625,-435.547,-442.383,20.020,24.414,0
1539631207.622,19.531,-431.152,-492.676,12.207,-34.668,0
1539631207.626,21.484,-52.734,-136.719,12.695,12.695,0
1539631207.630,16.113,-149.902,-190.430,13.672,54.688,0
1539631207.634,5.371,-98.633,-152.344,5.371,46.387,0
1539631207.638,-4.883,104.980,31.738,-7.324,27.832,0
1539631207.642,0.000,187.012,117.188,-12.207,29.297,0
1539631207.646,-5.371,138.184,80.078,-27.832,62.500,0
1539631207.650,-35.156,-46.387,-96.680,-48.340,62.988,0
1539631207.654,-63.965,-103.027,-163.574,-65.430,100.586,0
1539631207.657,-83.984,-27.832,-116.211,-84.473,34.668,0
1539631207.661,-91.309,-321.777,-384.766,-87.402,-54.688,0
1539631207.665,-108.398,-576.660,-630.859,-104.980,-15.137,0
1539631207.669,-124.512,-127.930,-246.582,-123.535,18.066,0
1539631207.673,-121.094,133.301,26.855,-120.605,35.156,0
1539631207.677,-124.023,59.570,-13.184,-122.559,52.734,0
1539631207.681,-129.395,129.883,49.316,-129.395,63.477,0
1539631207.685,-132.812,168.457,88.867,-131.348,56.152,0
1539631207.689,-132.812,72.754,11.230,-129.395,63.477,0
1539631207.693,-120.605,67.383,6.348,-125.000,70.312,0
1539631207.697,-108.398,-49.316,-99.121,-114.258,36.621,0
1539631207.700,-112.793,-205.078,-254.395,-109.375,-2.441,0
1539631207.704,-116.211,-90.332,-141.602,-106.445,69.336,0
1539631207.708,-99.609,-349.121,-358.398,-89.844,63.477,0
1539631207.712,-93.262,-364.258,-407.227,-87.402,-17.090,0
1539631207.716,-97.656,123.535,46.875,-86.914,27.344,0
1539631207.720,-87.402,118.164,85.938,-69.824,61.035,0
1539631207.724,-72.266,-26.367,-50.293,-58.594,10.254,0
1539631207.728,-60.059,122.070,68.359,-51.758,-10.254,0
1539631207.732,-53.711,227.539,177.734,-44.922,20.020,0
1539631207.736,-47.363,129.395,99.609,-33.203,38.086,0
1539631207.739,-33.691,73.242,48.828,-20.508,41.504,0
1539631207.743,-21.973,-29.785,-45.898,-12.207,34.180,0
1539631207.747,-12.207,-156.738,-169.922,-2.441,25.391,0
1539631207.751,-2.930,-420.410,-404.785,9.766,8.301,0
1539631207.755,4.883,-549.805,-540.527,9.766,37.109,0
1539631207.759,14.160,-12.207,-68.848,2.930,88.867,0
1539631207.763,24.414,230.957,184.082,8.789,37.598,0
1539631207.767,20.020,107.422,89.355,18.555,25.391,0
1539631207.771,24.414,59.570,32.715,27.344,-2.930,0
1539631207.775,37.109,187.988,140.137,30.273,2.441,0
1539631207.779,43.945,261.719,227.539,35.645,82.031,0
1539631207.782,49.805,116.211,97.656,40.527,48.340,0
1539631207.786,45.410,165.039,130.859,43.457,70.801,0
1539631207.790,49.805,70.801,43.945,52.734,48.340,0
1539631207.794,63.477,-181.152,-190.430,59.570,-3.906,0
1539631207.798,72.754,-510.254,-494.629,60.547,20.020,0
1539631207.802,69.336,-540.039,-550.781,58.594,43.457,0
1539631207.806,67.871,-49.316,-110.352,62.988,62.500,0
1539631207.810,78.125,20.996,-17.090,65.918,13.672,0
1539631207.814,79.590,-104.980,-133.301,62.988,-29.297,0
1539631207.818,76.172,103.516,46.875,61.523,24.902,0
1539631207.822,73.242,215.820,160.156,65.918,45.410,0
1539631207.825,73.242,71.289,31.250,68.359,16.602,0
1539631207.829,76.660,11.719,-33.691,66.895,17.090,0
1539631207.833,70.312,122.559,63.477,63.965,33.691,0
1539631207.837,54.688,24.902,-17.090,59.082,61.035,0
1539631207.841,61.523,-376.465,-380.859,63.965,56.641,0
1539631207.845,71.777,-541.992,-556.641,64.941,60.547,0
1539631207.849,61.035,-96.680,-172.852,54.688,72.266,0
1539631207.853,56.152,141.602,68.848,58.105,39.551,0
1539631207.857,56.641,61.523,15.625,62.500,67.383,0
1539631207.861,59.082,9.766,-32.227,61.035,99.121,0
1539631207.864,60.547,96.680,34.668,59.082,40.039,0
1539631207.868,56.152,137.695,80.566,54.688,26.367,0
1539631207.872,43.457,18.066,-24.414,50.293,37.109,0
1539631207.876,42.969,76.660,13.184,47.852,63.965,0
1539631207.880,52.246,178.711,104.492,49.805,50.293,0
1539631207.884,52.246,-33.203,-78.613,59.570,17.090,0
1539631207.888,56.152,-534.180,-541.504,67.383,34.180,0
1539631207.892,48.340,-461.426,-517.090,57.129,40.527,0
1539631207.896,48.340,59.570,-40.039,46.387,51.270,0
1539631207.900,55.664,53.711,-8.789,51.270,50.293,0
1539631207.904,50.293,-26.855,-83.496,48.828,63.965,0
1539631207.907,50.781,140.137,56.152,41.016,60.547,0
1539631207.911,49.805,190.918,104.004,36.621,6.836,0
1539631207.915,55.176,17.578,-42.969,39.062,4.395,0
1539631207.919,60.547,-134.766,-186.035,46.875,34.180,0
1539631207.923,59.082,-38.086,-117.676,42.969,7.324,0
1539631207.927,54.199,173.340,86.914,38.574,48.828,0
1539631207.931,50.781,-128.906,-160.156,39.551,50.781,0
1539631207.935,43.945,-419.922,-453.125,32.715,38.574,0
1539631207.939,36.621,-42.480,-139.648,23.926,62.012,0
1539631207.943,41.016,146.973,51.270,24.902,29.785,0
1539631207.947,41.016,-16.113,-82.031,26.855,50.781,0
1539631207.950,32.715,-76.172,-149.902,22.949,62.988,0
1539631207.954,30.762,137.207,36.621,20.508,63.477,0
1539631207.958,36.133,204.102,113.281,21.973,81.055,0
1539631207.962,41.016,127.441,49.805,27.832,84.961,0
1539631207.966,43.945,70.312,-19.531,31.250,29.785,0
1539631207.970,39.551,126.465,23.438,27.832,28.809,0
1539631207.974,37.598,54.688,-24.414,26.367,58.105,0
1539631207.978,40.527,-227.051,-288.086,31.738,1.465,0
1539631207.982,34.180,-343.262,-419.922,28.320,6.348,0
1539631207.986,22.949,-165.527,-262.695,13.184,58.594,0
1539631207.989,20.996,-58.594,-142.090,13.184,50.293,0
1539631207.993,29.785,-383.789,-426.270,22.949,69.824,0
1539631207.997,28.809,-309.082,-395.996,15.625,46.387,0
1539631208.001,22.949,87.891,-30.273,12.695,15.137,0
1539631208.005,28.809,-22.949,-103.027,21.973,-10.742,0
1539631208.009,34.668,-73.242,-154.785,25.879,5.371,0
1539631208.013,32.715,113.281,19.531,22.949,77.148,0
1539631208.017,30.762,150.391,60.059,22.461,66.895,0
1539631208.021,33.691,20.996,-61.035,28.320,-6.836,0
1539631208.025,38.086,-237.305,-298.828,33.691,-31.250,0
1539631208.029,39.062,-243.164,-317.871,30.273,17.578,0
1539631208.032,36.621,-117.676,-204.102,29.297,12.695,0
1539631208.036,37.109,-403.320,-447.266,29.297,-9.277,0
1539631208.040,38.086,-513.672,-564.453,23.926,52.246,0
1539631208.044,41.992,-57.129,-169.434,19.531,21.973,0
1539631208.048,37.598,147.461,45.410,21.973,6.348,0
1539631208.052,25.879,67.383,-7.324,19.043,50.293,0
1539631208.056,26.855,61.523,-23.438,16.113,22.461,0
1539631208.060,32.715,291.992,188.477,20.020,82.031,0
1539631208.064,40.527,297.363,215.820,27.832,90.820,0
1539631208.068,40.039,94.238,27.832,24.414,43.457,0
1539631208.072,39.062,-85.938,-152.832,23.438,46.387,0
1539631208.075,43.945,-201.172,-274.414,30.273,20.996,0
1539631208.079,42.480,-158.691,-234.863,30.273,23.438,0
1539631208.083,32.715,-221.191,-284.180,30.762,53.711,0
1539631208.087,20.508,-72.754,-166.992,25.879,46.387,0
1539631208.091,21.973,57.617,-37.598,24.902,21.484,0
1539631208.095,25.391,-224.609,-270.508,28.809,-1.953,0
1539631208.099,21.973,-468.750,-508.301,25.879,6.348,0
1539631208.103,12.695,-166.992,-259.766,20.996,41.504,0
1539631208.107,13.672,208.008,113.281,20.996,100.098,0
1539631208.111,19.531,171.875,101.562,23.438,91.309,0
1539631208.114,16.113,133.301,62.012,26.855,65.430,0
1539631208.118,5.859,40.039,-15.137,26.367,83.008,0
1539631208.122,5.859,-8.301,-75.195,22.949,68.359,0
1539631208.126,18.066,-227.051,-269.043,20.020,24.414,0
1539631208.130,20.996,-554.688,-583.496,14.160,3.906,0
1539631208.134,10.254,-187.500,-285.156,10.742,-1.465,0
1539631208.138,8.789,49.805,-41.504,16.602,-6.836,0
1539631208.142,17.578,-2.930,-68.848,20.508,20.996,0
1539631208.146,21.973,-20.020,-90.820,24.902,-21.973,0
1539631208.150,23.438,44.434,-27.344,26.367,35.156,0
1539631208.154,23.438,35.645,-25.391,25.391,57.129,0
1539631208.157,24.902,-48.828,-108.887,25.391,-8.301,0
1539631208.161,27.832,15.137,-62.988,22.949,-0.977,0
1539631208.165,27.832,-57.129,-128.906,22.461,7.812,0
1539631208.169,26.855,-164.551,-220.703,21.484,65.430,0
1539631208.173,28.809,-416.504,-446.777,21.484,89.844,0
1539631208.177,25.879,-361.816,-432.617,12.207,43.457,0
1539631208.181,17.578,119.629,7.324,4.883,45.410,0
1539631208.185,15.625,99.121,26.855,5.859,70.801,0
1539631208.189,18.555,-33.691,-100.586,8.301,47.852,0
1539631208.193,22.949,167.480,66.406,7.812,61.523,0
1539631208.197,32.227,240.723,141.113,11.719,35.156,0
1539631208.200,36.133,29.297,-49.316,21.484,-21.484,0
1539631208.204,27.344,-36.133,-118.652,17.578,15.625,0
1539631208.208,27.832,-42.969,-127.441,15.137,39.062,0
1539631208.212,34.180,-166.992,-248.535,19.531,-9.277,0
1539631208.216,29.785,-425.781,-477.539,21.484,5.371,0
1539631208.220,21.973,-638.672,-687.500,20.020,-2.441,0
1539631208.224,22.949,-354.004,-462.891,11.230,-31.738,0
1539631208.228,27.832,-27.344,-141.602,13.184,24.902,0
1539631208.232,20.020,59.082,-38.574,14.160,57.617,0
1539631208.236,16.113,5.859,-96.191,10.254,-9.766,0
1539631208.239,19.043,84.961,-35.645,3.906,-40.039,0
1539631208.243,18.555,122.070,6.836,0.000,12.695,0
1539631208.247,15.137,96.680,-8.301,3.906,82.031,0
1539631208.251,12.695,164.062,47.363,7.324,87.402,0
1539631208.255,7.812,191.895,70.801,8.789,36.133,0
1539631208.259,10.742,-60.547,-157.715,17.090,16.113,0
1539631208.263,20.020,-180.664,-282.715,20.996,27.832,0
1539631208.267,16.602,-128.906,-240.234,19.531,56.641,0
1539631208.271,14.648,-20.020,-150.879,16.113,53.223,0
1539631208.275,16.602,43.457,-71.777,12.207,58.105,0
1539631208.279,20.020,-398.438,-464.355,11.230,37.598,0
1539631208.282,16.113,-322.266,-438.477,7.812,40.527,0
1539631208.286,7.324,95.215,-45.898,7.324,54.199,0
1539631208.290,9.766,-10.742,-112.305,10.742,17.578,0
1539631208.294,17.578,-124.512,-223.633,10.254,-21.973,0
1539631208.298,22.949,22.461,-98.633,10.742,-10.254,0
1539631208.302,26.855,166.504,44.922,17.578,31.738,0
1539631208.306,29.297,-103.027,-171.875,22.949,96.191,0
1539631208.310,30.762,-391.602,-459.473,21.484,81.543,0
1539631208.314,25.879,-163.574,-300.781,12.695,-39.551,0
1539631208.318,15.625,36.133,-101.562,11.230,-28.320,0
1539631208.322,17.578,-121.582,-218.262,11.719,8.789,0
1539631208.325,25.879,-244.629,-338.867,6.836,17.578,0
1539631208.329,23.438,31.738,-98.145,6.836,22.461,0
1539631208.333,18.066,90.332,-24.902,11.230,-14.648,0
1539631208.337,17.578,-23.438,-118.164,15.625,11.230,0
1539631208.341,19.043,59.082,-51.758,18.555,67.871,0
1539631208.345,24.902,203.125,80.566,20.508,66.406,0
1539631208.349,24.414,156.250,48.340,22.949,41.992,0
1539631208.353,16.113,-135.742,-220.215,21.973,30.273,0
1539631208.357,15.137,-208.984,-313.965,20.020,42.969,0
1539631208.361,18.555,98.633,-37.109,16.113,89.355,0
1539631208.364,22.949,77.637,-25.391,18.555,52.734,0
1539631208.368,21.484,-380.859,-434.082,21.484,75.195,0
1539631208.372,17.578,-311.523,-408.691,13.184,98.145,0
1539631208.376,22.949,86.914,-44.922,11.719,49.316,0
1539631208.380,25.879,-20.508,-113.770,17.090,26.855,0
1539631208.384,20.508,-217.773,-298.340,22.461,1.465,0
1539631208.388,18.555,-44.922,-155.273,20.996,8.789,0
1539631208.392,24.414,61.523,-49.316,21.484,-9.766,0
1539631208.396,27.832,-44.434,-132.812,25.391,-17.578,0
1539631208.400,23.438,-237.793,-309.082,25.391,-6.836,0
1539631208.404,20.020,-287.109,-367.676,20.996,22.949,0
1539631208.407,27.344,-35.645,-145.020,15.625,29.785,0
1539631208.411,34.668,-218.262,-280.762,20.996,9.277,0
1539631208.415,29.785,-553.223,-598.633,16.602,5.371,0
1539631208.419,20.020,-166.016,-280.762,6.836,13.184,0
1539631208.423,20.508,66.406,-38.574,14.648,8.301,0
1539631208.427,24.902,-72.266,-152.344,18.066,-25.879,0
1539631208.431,24.414,53.711,-38.574,16.602,46.875,0
1539631208.435,17.090,206.055,118.164,18.066,102.051,0
1539631208.439,19.531,80.078,15.625,14.160,117.188,0
1539631208.443,23.926,-37.598,-103.516,14.648,57.129,0
1539631208.447,23.926,-139.160,-205.078,16.602,21.973,0
1539631208.450,21.973,-175.781,-252.441,14.160,25.879,0
1539631208.454,13.672,-98.145,-180.176,10.254,16.602,0
1539631208.458,19.531,-409.180,-441.406,10.254,38.086,0
1539631208.462,19.531,-435.547,-505.371,7.324,-29.297,0
1539631208.466,13.672,10.254,-104.492,2.930,-20.508,0
1539631208.470,16.602,29.297,-49.316,10.742,40.527,0
1539631208.474,13.184,3.418,-65.430,11.230,79.102,0
1539631208.478,13.672,148.438,52.246,6.836,40.527,0
1539631208.482,14.160,178.711,81.055,12.695,10.742,0
1539631208.486,2.930,99.609,18.066,10.254,54.199,0
1539631208.489,6.348,13.672,-68.359,3.418,37.598,0
1539631208.493,17.578,-31.738,-115.723,2.930,56.641,0
1539631208.497,15.625,-20.996,-109.375,-1.465,107.910,0
1539631208.501,9.277,-263.672,-315.430,-1.465,105.469,0
1539631208.505,5.859,-528.809,-577.637,-0.977,57.617,0
1539631208.509,11.230,-150.391,-267.578,-2.930,18.066,0
1539631208.513,15.625,163.086,51.758,-0.977,62.500,0
1539631208.517,7.324,79.590,-1.465,0.000,66.895,0
1539631208.521,8.301,-47.363,-137.207,6.348,-31.250,0
1539631208.525,14.160,104.980,-0.488,6.348,6.348,0
1539631208.529,15.137,143.066,54.688,10.254,31.250,0
1539631208.532,8.301,-12.207,-91.797,14.160,10.742,0
1539631208.536,-0.977,108.887,11.230,8.301,99.609,0
1539631208.540,0.000,-20.020,-106.445,9.766,23.438,0
1539631208.544,8.301,-250.000,-324.219,12.207,-5.859,0
1539631208.548,12.695,-442.871,-494.141,6.836,106.934,0
1539631208.552,0.000,-419.434,-502.441,-7.324,34.668,0
1539631208.556,-3.418,-118.164,-230.469,-10.254,26.855,0
1539631208.560,6.836,-55.176,-142.090,-4.395,95.703,0
1539631208.564,10.254,28.320,-59.082,0.000,85.449,0
1539631208.568,-1.465,200.684,94.238,-5.859,73.730,0
1539631208.572,-10.254,273.926,168.945,-13.672,78.125,0
1539631208.575,5.371,106.445,13.184,-4.395,41.992,0
1539631208.579,12.695,3.418,-100.586,2.930,19.531,0
1539631208.583,6.348,89.355,-26.855,-0.488,16.113,0
1539631208.587,1.953,-49.805,-147.461,8.789,9.277,0
1539631208.591,9.277,-420.410,-476.074,11.230,33.691,0
1539631208.595,11.719,-615.723,-677.734,2.930,11.230,0
1539631208.599,-0.488,-169.922,-301.270,-1.465,36.133,0
1539631208.603,-7.812,123.535,-17.090,-3.418,35.645,0
1539631208.607,2.441,-71.777,-211.426,0.488,-42.480,0
1539631208.611,13.184,-35.645,-188.965,0.000,20.020,0
1539631208.614,7.812,113.770,-41.992,-1.953,65.918,0
1539631208.618,5.859,70.801,-77.148,0.000,12.695,0
1539631208.622,6.836,-73.730,-211.914,3.418,-27.344,0
1539631208.626,9.766,20.508,-140.625,-0.977,36.621,0
1539631208.630,5.371,211.914,40.527,-7.324,75.195,0
1539631208.634,-3.906,27.344,-97.656,0.488,81.055,0
1539631208.638,-6.836,-212.402,-325.684,4.395,70.312,0
1539631208.642,1.465,-59.570,-216.797,0.977,34.180,0
1539631208.646,5.371,91.309,-70.312,5.371,39.062,0
1539631208.650,2.930,-12.207,-135.254,8.789,38.574,0
1539631208.654,4.395,-422.852,-506.836,9.277,33.203,0
1539631208.657,2.930,-303.711,-436.035,7.324,64.453,0
1539631208.661,4.395,160.645,0.488,6.348,82.520,0
1539631208.665,7.812,67.871,-50.781,9.277,29.785,0
1539631208.669,2.930,-174.805,-268.555,11.230,1.953,0
1539631208.673,-0.488,-118.164,-230.957,5.371,52.734,0
1539631208.677,6.836,157.227,21.973,-0.488,70.801,2
1539631208.681,12.695,-134.766,-215.332,4.395,26.855,0
1539631208.685,6.348,-426.270,-503.418,2.930,27.344,0
1539631208.689,4.395,-58.105,-191.895,-4.883,45.410,0
1539631208.693,13.184,193.848,68.359,0.977,62.500,0
1539631208.697,18.555,-9.766,-102.051,11.230,37.109,0
1539631208.700,11.230,-152.832,-259.766,10.254,-0.488,0
1539631208.704,2.930,77.148,-81.055,6.348,29.297,0
1539631208.708,8.789,124.512,-36.621,5.371,40.527,0
1539631208.712,10.742,-0.488,-146.484,4.883,9.766,0
1539631208.716,4.395,7.324,-152.832,5.371,9.277,0
1539631208.720,6.348,104.980,-67.383,5.371,21.484,0
1539631208.724,13.184,72.266,-83.496,10.742,29.785,0
1539631208.728,15.137,-75.195,-202.637,15.625,74.707,0
1539631208.732,17.578,-268.555,-388.184,19.043,39.062,0
1539631208.736,16.113,-170.410,-313.965,19.531,36.133,0
1539631208.739,17.578,-96.191,-228.027,23.926,1.953,0
1539631208.743,21.973,-477.051,-562.500,24.414,4.883,0
1539631208.747,16.113,-335.449,-462.891,13.672,55.176,0
1539631208.751,12.695,89.355,-70.312,12.207,20.508,0
1539631208.755,11.230,38.574,-83.984,15.137,34.668,0
1539631208.759,12.695,-37.598,-166.504,11.719,26.367,0
1539631208.763,14.648,96.191,-70.312,12.695,-2.441,0
1539631208.767,8.301,141.602,-34.180,14.160,-3.418,0
1539631208.771,6.836,63.965,-100.098,20.508,48.340,0
1539631208.775,14.160,-116.211,-262.207,24.414,49.805,0
1539631208.779,16.602,-191.895,-336.426,19.043,53.223,0
1539631208.782,9.766,-31.738,-196.777,17.578,64.453,0
1539631208.786,6.348,-155.273,-280.762,16.113,98.145,0
1539631208.790,9.766,-343.262,-443.359,5.371,152.832,0
1539631208.794,11.230,57.617,-104.004,-4.883,95.215,0
1539631208.798,11.719,181.641,26.855,-1.953,4.883,0
1539631208.802,9.277,81.055,-57.617,-0.977,67.383,0
1539631208.806,11.719,89.355,-67.871,1.953,64.941,0
1539631208.810,18.555,182.129,6.836,7.324,16.602,0
1539631208.814,20.996,234.863,74.707,9.766,81.055,0
1539631208.818,20.020,92.773,-46.875,15.137,56.641,0
1539631208.822,19.531,-121.582,-249.512,18.066,21.973,0
1539631208.825,20.020,-124.023,-261.719,15.137,42.969,0
1539631208.829,18.066,53.223,-83.496,9.766,73.242,0
1539631208.833,17.090,-263.672,-345.703,9.277,101.074,0
1539631208.837,11.719,-267.090,-372.559,2.441,79.590,0
1539631208.841,7.324,91.309,-43.457,0.488,11.719,0
1539631208.845,10.254,-35.645,-128.906,7.324,21.973,0
1539631208.849,13.184,-65.918,-159.180,5.859,66.895,0
1539631208.853,10.742,188.477,67.871,1.465,65.430,0
1539631208.857,14.160,140.137,36.621,7.812,26.367,0
1539631208.861,20.508,26.367,-65.918,10.742,67.871,0
1539631208.864,16.602,63.477,-37.109,7.812,57.129,0
1539631208.868,9.766,-94.727,-184.082,9.766,-19.043,0
1539631208.872,10.742,-135.254,-226.562,9.277,26.855,0
1539631208.876,11.230,-275.879,-333.496,5.371,47.363,0
1539631208.880,7.812,-507.324,-545.410,-1.465,22.949,0
1539631208.884,0.977,-145.020,-240.723,-11.719,9.766,0
1539631208.888,-1.953,149.414,54.199,-10.254,41.016,0
1539631208.892,0.000,125.977,57.617,-2.930,90.332,0
1539631208.896,10.254,145.508,73.242,-0.488,70.312,0
1539631208.900,15.625,267.090,185.547,1.465,53.711,0
1539631208.904,10.254,95.215,46.387,9.277,72.754,0
1539631208.907,12.695,-58.594,-105.469,13.184,67.871,0
1539631208.911,21.484,86.914,9.277,12.695,48.828,0
1539631208.915,21.973,15.137,-47.363,18.066,31.738,0
1539631208.919,14.160,-174.316,-216.309,14.648,29.297,0
1539631208.923,18.066,-484.863,-500.977,10.742,61.523,0
1539631208.927,20.508,-395.996,-450.684,6.836,38.086,0
1539631208.931,14.160,57.129,-38.574,2.441,-1.953,0
1539631208.935,12.207,60.547,3.418,6.348,32.715,0
1539631208.939,11.719,-16.113,-63.477,5.371,52.734,0
1539631208.943,18.066,193.359,115.234,2.930,75.195,0
1539631208.947,22.949,294.434,218.262,6.836,56.152,0
1539631208.950,15.625,118.164,62.988,7.324,25.879,0
1539631208.954,12.695,0.488,-62.988,7.324,9.766,0
1539631208.958,20.996,63.965,-7.324,10.254,25.391,0
1539631208.962,28.809,-12.207,-65.430,17.578,51.270,0
1539631208.966,29.297,-351.562,-367.676,21.484,50.781,0
1539631208.970,28.809,-558.594,-575.684,15.625,48.828,0
1539631208.974,25.879,-166.504,-248.535,7.812,29.297,0
1539631208.978,22.949,97.168,15.137,11.230,-8.301,0
1539631208.982,22.949,-4.395,-63.477,15.625,-22.949,0
1539631208.986,22.949,-22.949,-88.867,13.184,-17.578,0
1539631208.989,25.879,123.535,43.945,12.695,-16.113,0
1539631208.993,30.273,134.277,64.453,17.090,-9.766,0
1539631208.997,19.043,46.875,-7.324,10.742,27.832,0
1539631209.001,8.789,36.133,-33.203,8.789,5.371,0
1539631209.005,4.395,126.465,48.828,8.301,12.695,0
1539631209.009,8.789,-25.391,-72.754,8.789,9.766,0
1539631209.013,15.137,-529.785,-545.410,12.207,-27.344,0
1539631209.017,5.371,-588.867,-631.836,3.906,-10.254,0
1539631209.021,-7.324,-169.434,-251.953,-1.465,41.992,0
1539631209.025,-2.441,-21.973,-94.727,-1.465,51.270,0
1539631209.029,5.371,-23.438,-88.379,-0.977,25.879,0
1539631209.032,-1.953,162.598,72.754,-4.883,25.391,0
1539631209.036,-6.348,257.324,166.016,-7.812,28.320,0
1539631209.040,0.000,153.320,78.125,-4.395,43.945,0
1539631209.044,4.395,65.918,-10.742,-3.906,28.320,0
1539631209.048,-0.488,132.324,38.574,-6.348,6.836,0
1539631209.052,-1.953,205.078,109.863,-7.324,19.043,0
1539631209.056,7.812,-115.234,-158.203,-0.488,51.758,0
1539631209.060,2.930,-343.750,-384.277,0.488,72.266,0
1539631209.064,-9.277,50.293,-52.734,-6.348,65.918,0
1539631209.068,-5.859,100.098,20.996,-3.418,43.457,0
1539631209.072,-8.301,-229.980,-282.715,-3.906,-2.930,0
1539631209.075,-2.441,-327.637,-398.438,-3.906,-31.738,0
1539631209.079,9.277,-136.230,-228.516,-2.441,6.348,0
1539631209.083,5.859,100.586,2.930,-1.465,54.688,0
1539631209.087,0.977,39.551,-42.480,2.441,12.695,0
1539631209.091,6.836,77.637,-17.090,6.348,36.621,0
1539631209.095,18.555,255.371,154.297,12.207,68.848,0
1539631209.099,17.578,181.152,101.562,13.184,18.066,0
1539631209.103,10.742,-72.266,-134.277,3.418,4.395,0
1539631209.107,10.254,-195.801,-268.555,-5.371,44.922,0
1539631209.111,16.113,62.012,-40.039,-1.465,102.051,0
1539631209.114,18.066,125.488,46.387,3.906,53.711,0
1539631209.118,14.648,-450.195,-477.051,-0.488,-31.250,0
1539631209.122,5.859,-459.473,-534.668,-7.324,-29.785,0
1539631209.126,13.672,16.113,-93.750,-0.977,0.977,0
1539631209.130,20.996,63.965,-9.277,6.836,49.316,0
1539631209.134,15.137,-99.121,-149.414,10.254,49.805,0
1539631209.138,13.184,-15.625,-91.309,8.789,29.785,0
1539631209.142,10.742,179.199,84.961,9.277,43.457,0
1539631209.146,15.625,126.953,50.781,16.113,59.082,0
1539631209.150,16.113,-34.668,-93.262,18.555,83.984,0
1539631209.154,10.742,-188.965,-249.023,16.113,44.434,0
1539631209.157,13.672,-99.121,-188.477,11.230,19.043,0
1539631209.161,27.832,-200.195,-258.301,7.812,47.852,0
1539631209.165,27.832,-455.078,-492.676,9.766,47.852,0
1539631209.169,16.113,-95.703,-200.195,3.418,36.133,0
1539631209.173,21.973,123.535,21.484,7.324,23.438,0
1539631209.177,28.320,36.621,-47.363,13.672,21.484,0
1539631209.181,34.180,20.020,-75.684,12.695,-6.348,0
1539631209.185,32.715,159.668,54.199,16.113,16.113,0
1539631209.189,28.320,188.965,97.656,14.160,67.871,0
1539631209.193,32.227,66.406,-6.348,15.625,107.422,0
1539631209.197,30.762,-74.707,-145.996,18.555,82.031,0
1539631209.200,19.043,-183.105,-271.484,4.395,12.695,0
1539631209.204,13.184,-104.980,-201.172,-1.953,35.645,0
1539631209.208,14.648,-343.750,-400.391,-2.441,79.102,0
