timestamps,TP9,AF7,AF8,TP10,Right AUX,Marker0
1539631683.833,42.969,-971.191,-578.613,13.672,50.293,0
1539631683.837,46.875,-970.703,-690.918,12.695,62.988,0
1539631683.841,60.547,-970.703,-648.926,0.488,114.258,0
1539631683.845,58.105,-971.191,-681.641,-12.207,53.223,0
1539631683.849,57.129,-971.191,-832.031,5.371,-6.348,0
1539631683.853,42.969,-971.191,-951.660,34.180,33.203,0
1539631683.857,55.664,-971.191,-974.609,39.062,-5.371,0
1539631683.861,57.617,-971.191,-966.309,21.973,-19.531,0
1539631683.864,49.805,-971.191,-971.191,24.902,-2.441,0
1539631683.868,57.129,-970.703,-973.633,25.391,1.953,0
1539631683.872,50.781,-971.191,-959.473,23.438,51.758,0
1539631683.876,51.758,-971.191,-952.148,28.809,49.805,0
1539631683.880,47.363,-970.703,-971.191,13.184,-12.207,0
1539631683.884,49.316,-971.191,-971.680,21.484,-49.805,0
1539631683.888,66.406,-971.191,-970.215,35.645,-5.859,0
1539631683.892,53.223,-970.703,-971.191,7.812,-3.906,0
1539631683.896,34.668,-971.191,-971.191,-7.812,-16.602,0
1539631683.900,17.090,-971.191,-971.191,-20.508,12.695,0
1539631683.904,5.859,-971.191,-971.191,-29.785,42.969,0
1539631683.907,28.809,-970.703,-970.703,0.977,17.578,0
1539631683.911,28.320,-970.703,-970.703,9.277,2.930,0
1539631683.915,22.949,-971.191,-970.703,-13.672,53.711,0
1539631683.919,34.668,-970.703,-971.191,-5.371,27.832,0
1539631683.923,45.410,-970.703,-971.191,-7.812,-25.391,0
1539631683.927,66.406,-971.191,-971.191,-9.766,22.461,0
1539631683.931,89.355,-971.191,-971.191,-15.625,77.148,0
1539631683.935,111.816,-971.191,-971.191,-0.977,25.879,0
1539631683.939,109.863,-971.191,-970.703,47.363,-4.883,0
1539631683.943,84.961,-971.191,-971.191,50.293,25.879,0
1539631683.947,99.121,-971.191,-971.191,43.457,33.203,0
1539631683.950,133.301,-970.703,-970.703,47.363,12.695,0
1539631683.954,110.840,-970.703,-971.191,37.109,49.316,0
1539631683.958,101.562,-971.191,-970.215,23.438,99.609,0
1539631683.962,121.582,-970.703,-973.145,6.836,35.645,0
1539631683.966,109.863,-970.703,-964.844,11.230,42.480,0
1539631683.970,77.148,-971.191,-955.078,29.785,96.191,0
1539631683.974,94.727,-970.703,-969.727,35.645,95.703,0
1539631683.978,133.301,-970.703,-972.168,20.996,46.387,0
1539631683.982,121.582,-970.703,-970.215,12.207,8.301,0
1539631683.986,126.465,-970.703,-971.191,26.855,25.879,0
1539631683.989,136.719,-971.191,-971.191,38.086,13.184,0
1539631683.993,111.328,-971.191,-971.191,39.551,31.250,0
1539631683.997,123.047,-970.703,-967.773,42.480,76.660,0
1539631684.001,125.977,-971.191,-975.098,27.344,43.945,0
1539631684.005,98.145,-970.703,-945.801,27.832,22.461,0
1539631684.009,94.727,-970.703,-857.422,39.062,81.543,0
1539631684.013,94.238,-971.191,-853.516,45.410,58.105,1
1539631684.017,88.379,-971.191,-954.102,49.316,8.301,0
1539631684.021,74.707,-971.191,-938.477,27.832,28.320,0
1539631684.025,88.867,-971.191,-869.141,20.508,19.043,0
1539631684.029,113.281,-971.191,-886.230,32.227,30.273,0
1539631684.032,113.770,-971.191,-955.566,33.691,48.340,0
1539631684.036,71.777,-971.191,-958.008,21.973,23.438,0
1539631684.040,106.445,-970.703,-956.543,30.762,47.852,0
1539631684.044,109.863,-970.703,-972.656,36.621,41.992,0
1539631684.048,87.891,-970.703,-976.074,7.812,13.184,0
1539631684.052,100.098,-971.191,-953.125,-18.066,71.777,0
1539631684.056,84.473,-971.191,-933.105,-18.066,80.078,0
1539631684.060,90.332,-971.191,-969.727,10.742,-45.898,0
1539631684.064,95.703,-971.191,-974.609,9.766,-14.648,0
1539631684.068,101.562,-970.703,-951.660,-14.160,88.379,0
1539631684.072,87.891,-971.191,-912.109,-16.113,100.098,0
1539631684.075,115.234,-971.191,-939.453,3.906,56.641,0
1539631684.079,147.949,-971.191,-974.609,25.391,24.414,0
1539631684.083,125.488,-971.191,-962.402,47.363,60.547,0
1539631684.087,121.582,-971.191,-967.773,43.945,55.176,0
1539631684.091,108.887,-971.191,-972.168,21.484,16.113,0
1539631684.095,131.348,-971.191,-969.238,19.531,-13.672,0
1539631684.099,115.723,-971.191,-958.496,21.973,28.320,0
1539631684.103,93.750,-970.703,-906.738,10.254,50.781,0
1539631684.107,108.887,-971.191,-942.871,10.254,23.926,0
1539631684.111,69.824,-971.191,-944.824,23.438,25.879,0
1539631684.114,57.617,-971.191,-817.383,13.184,40.039,0
1539631684.118,101.074,-971.191,-825.684,14.648,8.301,0
1539631684.122,117.188,-971.191,-887.207,30.273,22.461,0
1539631684.126,94.727,-971.191,-777.344,26.367,86.426,0
1539631684.130,71.777,-971.191,-798.340,6.348,2.930,0
1539631684.134,75.684,-971.191,-937.500,11.230,-18.066,0
1539631684.138,74.707,-971.191,-976.562,20.996,74.219,0
1539631684.142,44.434,-971.191,-886.719,1.953,66.406,0
1539631684.146,49.805,-971.191,-679.199,1.465,103.516,0
1539631684.150,63.965,-971.191,-750.488,-11.230,131.836,0
1539631684.154,41.504,-971.191,-846.680,-31.738,56.641,0
1539631684.157,-14.160,-971.191,-720.703,-46.875,7.324,0
1539631684.161,-27.832,-971.191,-654.785,-75.684,31.250,0
1539631684.165,21.484,-971.191,-728.516,-95.215,28.809,0
1539631684.169,2.930,-971.191,-791.016,-101.074,-19.043,0
1539631684.173,-29.297,-971.191,-680.176,-105.957,17.090,0
1539631684.177,-64.941,-971.191,-615.234,-130.859,59.082,0
1539631684.181,-61.523,-970.703,-843.262,-132.812,3.418,0
1539631684.185,-67.383,-970.703,-894.043,-163.574,26.855,0
1539631684.189,-88.379,-971.191,-659.668,-173.828,20.020,0
1539631684.193,-24.902,-971.191,-580.566,-142.090,-21.973,0
1539631684.197,-30.273,-971.191,-653.809,-133.301,34.668,0
1539631684.200,-62.988,-971.191,-625.000,-140.625,26.367,0
1539631684.204,-58.594,-971.191,-502.441,-150.879,34.668,0
1539631684.208,-47.363,-971.191,-520.020,-129.883,84.961,0
1539631684.212,-41.504,-971.191,-541.504,-102.051,41.016,0
1539631684.216,-42.480,-971.191,-425.781,-108.887,79.590,0
1539631684.220,-54.688,-971.191,-338.867,-97.656,90.332,0
1539631684.224,-33.203,-971.191,-445.801,-65.918,24.414,0
1539631684.228,7.324,-971.191,-575.684,-73.730,45.410,0
1539631684.232,14.648,-971.191,-588.379,-65.918,67.383,0
1539631684.236,-0.488,-971.191,-425.781,-31.738,45.410,0
1539631684.239,-26.367,-971.191,-395.508,-48.340,55.176,0
1539631684.243,-1.953,-971.191,-676.758,-49.316,67.383,0
1539631684.247,76.660,-971.191,-549.805,12.695,49.805,0
1539631684.251,83.496,-970.703,-260.742,16.113,57.129,0
1539631684.255,67.383,-971.191,-380.859,3.418,58.105,0
1539631684.259,90.332,-971.191,-445.312,20.996,46.387,0
1539631684.263,72.754,-971.191,-431.641,47.852,28.809,0
1539631684.267,62.500,-971.191,-468.262,67.871,29.785,0
1539631684.271,67.871,-971.191,-435.547,48.340,48.340,0
1539631684.275,59.082,-971.191,-531.250,31.250,35.156,0
1539631684.279,76.172,-971.191,-593.262,36.133,19.043,0
1539631684.282,131.836,-971.191,-437.012,77.637,49.805,0
1539631684.286,132.324,-971.191,-544.922,90.820,71.777,0
1539631684.290,101.074,-971.191,-766.602,83.496,14.648,0
1539631684.294,131.348,-970.703,-440.918,95.215,61.523,0
1539631684.298,132.812,-971.191,-303.223,85.449,134.277,0
1539631684.302,130.859,-971.191,-501.953,71.289,64.941,0
1539631684.306,140.137,-971.191,-540.039,75.684,13.672,0
1539631684.310,149.414,-971.191,-525.879,80.566,22.461,0
1539631684.314,172.363,-971.191,-589.844,83.008,40.039,0
1539631684.318,175.293,-971.191,-664.062,78.613,-9.766,0
1539631684.322,169.434,-971.191,-732.910,74.707,-11.230,0
1539631684.325,176.758,-971.191,-708.496,71.289,68.359,0
1539631684.329,179.199,-971.191,-736.328,75.684,84.473,0
1539631684.333,147.949,-971.191,-933.594,91.309,6.836,0
1539631684.337,143.066,-971.191,-845.703,73.730,-26.367,0
1539631684.341,155.273,-970.703,-586.426,64.453,58.594,0
1539631684.345,133.789,-970.703,-695.801,74.707,54.688,0
1539631684.349,138.672,-971.191,-814.941,73.242,-9.766,0
1539631684.353,137.695,-971.191,-627.930,55.664,54.199,0
1539631684.357,125.488,-971.191,-591.309,41.992,62.988,0
1539631684.361,121.582,-971.191,-753.418,61.035,-7.812,0
1539631684.364,114.258,-971.191,-744.629,74.707,8.789,0
1539631684.368,112.793,-971.191,-769.043,63.965,23.438,0
1539631684.372,122.070,-971.191,-713.867,54.199,63.477,0
1539631684.376,126.465,-971.191,-754.883,58.105,76.660,0
1539631684.380,125.488,-971.191,-911.621,72.266,89.355,0
1539631684.384,115.234,-971.191,-619.629,76.172,102.539,0
1539631684.388,105.469,-971.191,-541.016,71.777,8.789,0
1539631684.392,98.145,-971.191,-663.574,72.754,14.160,0
1539631684.396,105.469,-970.703,-671.875,68.848,13.184,0
1539631684.400,92.285,-970.703,-573.242,62.012,12.695,0
1539631684.404,73.730,-970.703,-599.121,60.059,-1.465,0
1539631684.407,68.359,-970.703,-612.305,50.293,38.574,0
1539631684.411,77.637,-971.191,-572.754,44.922,4.883,0
1539631684.415,75.684,-971.191,-612.793,39.551,-9.766,0
1539631684.419,62.012,-970.703,-670.898,47.363,47.363,0
1539631684.423,62.500,-971.191,-912.598,48.828,18.066,0
1539631684.427,48.340,-970.703,-849.121,34.180,7.324,0
1539631684.431,37.598,-971.191,-551.270,25.879,35.645,0
1539631684.435,26.855,-970.703,-655.273,2.441,14.160,0
1539631684.439,16.602,-971.191,-848.145,-6.348,-36.133,0
1539631684.443,1.465,-970.703,-658.203,-13.184,46.387,0
1539631684.447,-17.090,-967.773,-515.137,-36.621,107.422,0
1539631684.450,-26.367,-970.215,-665.039,-46.875,57.129,0
1539631684.454,-31.738,-971.191,-710.938,-62.500,60.059,0
1539631684.458,-42.480,-970.703,-700.195,-64.941,19.531,0
1539631684.462,-55.176,-971.191,-860.840,-55.664,-20.996,0
1539631684.466,-69.824,-971.191,-961.426,-72.266,11.719,0
1539631684.470,-77.148,-970.703,-965.820,-90.820,9.766,0
1539631684.474,-87.402,-970.703,-875.488,-102.051,3.906,0
1539631684.478,-91.309,-971.191,-816.895,-104.004,2.441,0
1539631684.482,-86.426,-971.191,-854.492,-99.609,36.133,0
1539631684.486,-82.031,-970.703,-791.016,-83.496,59.570,0
1539631684.489,-73.730,-970.703,-691.406,-74.707,38.086,0
1539631684.493,-77.148,-971.191,-661.133,-84.961,76.660,0
1539631684.497,-66.895,-970.703,-782.227,-69.824,65.430,0
1539631684.501,-53.223,-971.191,-778.320,-49.316,12.207,0
1539631684.505,-50.293,-971.191,-630.859,-43.457,37.109,0
1539631684.509,-47.852,-971.191,-741.211,-16.113,62.500,0
1539631684.513,-35.645,-971.191,-953.125,-16.602,66.895,0
1539631684.517,-22.949,-971.191,-828.125,-13.184,42.480,0
1539631684.521,-18.555,-971.191,-622.070,3.418,59.082,0
1539631684.525,-16.602,-971.191,-723.633,6.836,62.012,0
1539631684.529,-14.160,-971.191,-721.680,13.184,88.379,0
1539631684.532,-5.859,-970.703,-626.465,23.926,73.730,0
1539631684.536,2.441,-970.703,-643.066,37.109,40.527,0
1539631684.540,6.348,-971.191,-759.277,27.832,61.523,0
1539631684.544,11.230,-971.191,-872.559,26.367,27.832,0
1539631684.548,20.996,-971.191,-820.801,36.133,22.461,0
1539631684.552,27.832,-971.191,-852.539,45.410,20.996,0
1539631684.556,29.297,-971.191,-955.078,59.082,3.906,0
1539631684.560,35.156,-971.191,-976.074,69.336,-23.926,0
1539631684.564,31.250,-970.703,-966.797,68.848,-19.043,0
1539631684.568,30.762,-971.191,-972.168,71.777,27.344,0
1539631684.572,37.109,-971.191,-971.191,77.148,31.250,0
1539631684.575,38.574,-971.191,-971.191,65.430,1.953,0
1539631684.579,41.992,-971.191,-971.191,61.523,-34.180,0
1539631684.583,39.551,-970.703,-971.191,71.289,-23.438,0
1539631684.587,30.762,-971.191,-971.191,62.500,27.344,0
1539631684.591,24.902,-971.191,-971.191,48.340,55.176,0
1539631684.595,26.855,-971.191,-971.191,51.270,41.992,0
1539631684.599,26.367,-971.191,-971.191,55.176,25.391,0
1539631684.603,20.996,-971.191,-971.191,52.734,-8.789,0
1539631684.607,17.578,-971.191,-971.191,53.711,14.160,0
1539631684.611,10.742,-971.191,-971.191,55.176,20.996,0
1539631684.614,1.465,-971.191,-971.191,60.547,10.254,0
1539631684.618,-5.371,-971.191,-971.191,50.293,14.648,0
1539631684.622,-21.973,-971.191,-971.191,46.875,34.668,0
1539631684.626,-34.180,-971.191,-971.191,51.758,62.988,0
1539631684.630,-38.086,-971.191,-971.191,38.574,17.090,0
1539631684.634,-48.340,-971.191,-970.703,35.156,28.320,0
1539631684.638,-56.641,-970.703,-971.191,40.527,87.402,0
1539631684.642,-62.500,-970.703,-970.703,41.016,70.312,0
1539631684.646,-65.918,-970.703,-971.191,42.969,46.387,0
1539631684.650,-72.266,-970.703,-971.191,39.551,64.941,0
1539631684.654,-83.984,-970.703,-971.191,37.109,29.297,0
1539631684.657,-96.191,-970.703,-971.191,44.922,-0.977,0
1539631684.661,-115.234,-970.703,-971.191,39.062,37.598,0
1539631684.665,-137.207,-970.703,-971.191,29.297,71.777,0
1539631684.669,-152.832,-971.191,-971.191,30.273,30.273,0
1539631684.673,-165.039,-971.191,-971.191,24.414,40.039,0
1539631684.677,-179.688,-971.191,-970.703,13.672,50.781,0
1539631684.681,-196.289,-971.191,-971.191,9.277,44.922,0
1539631684.685,-211.426,-971.191,-971.191,3.906,62.988,0
1539631684.689,-210.938,-971.191,-971.191,-1.465,4.883,0
1539631684.693,-201.660,-971.191,-971.191,-2.441,31.738,0
1539631684.697,-187.012,-971.191,-970.703,-2.441,19.531,0
1539631684.700,-170.410,-970.703,-971.191,0.000,5.371,0
1539631684.704,-162.598,-971.191,-971.191,10.742,26.855,0
1539631684.708,-148.926,-971.191,-971.191,18.555,-3.906,0
1539631684.712,-137.207,-971.191,-971.191,14.648,-15.137,0
1539631684.716,-141.602,-971.191,-971.191,7.324,-8.301,0
1539631684.720,-141.602,-971.191,-971.191,3.418,-8.301,0
1539631684.724,-134.277,-971.191,-971.191,6.348,26.855,0
1539631684.728,-122.559,-970.703,-971.191,7.812,37.598,0
1539631684.732,-116.699,-971.191,-971.191,7.812,23.926,0
1539631684.736,-118.652,-971.191,-971.191,3.418,70.801,0
1539631684.739,-111.816,-970.703,-970.215,-1.465,61.523,0
1539631684.743,-104.492,-970.703,-973.633,2.441,6.836,0
1539631684.747,-104.492,-970.703,-960.938,6.836,46.875,0
1539631684.751,-104.492,-971.191,-965.332,11.230,20.508,0
1539631684.755,-95.703,-971.191,-949.707,11.719,-5.371,0
1539631684.759,-85.938,-971.191,-825.684,14.160,51.270,0
1539631684.763,-84.961,-971.191,-737.305,11.719,77.148,0
1539631684.767,-85.449,-971.191,-866.699,14.160,21.484,0
1539631684.771,-79.102,-970.703,-853.027,18.066,18.066,0
1539631684.775,-70.312,-971.191,-716.309,18.555,54.688,0
1539631684.779,-69.824,-971.191,-774.414,19.043,37.598,0
1539631684.782,-72.754,-970.703,-833.008,17.090,58.594,0
1539631684.786,-71.777,-970.703,-842.773,18.555,66.895,0
1539631684.790,-66.406,-971.191,-927.734,20.996,2.441,0
1539631684.794,-65.918,-971.191,-970.215,22.461,16.602,0
1539631684.798,-66.895,-971.191,-978.516,22.949,68.848,0
1539631684.802,-67.383,-971.191,-897.949,18.066,31.738,0
1539631684.806,-67.871,-971.191,-680.664,14.160,82.520,0
1539631684.810,-59.570,-971.191,-734.375,20.020,110.352,0
1539631684.814,-54.688,-971.191,-766.113,24.414,142.090,0
1539631684.818,-55.664,-971.191,-663.574,27.344,100.586,0
1539631684.822,-51.758,-971.191,-715.332,22.949,18.066,0
1539631684.825,-51.270,-970.703,-802.734,16.602,33.203,0
1539631684.829,-52.246,-971.191,-839.355,19.043,8.301,0
1539631684.833,-47.852,-971.191,-778.809,19.531,-20.020,0
1539631684.837,-41.992,-970.703,-875.488,23.926,5.371,0
1539631684.841,-40.527,-970.703,-979.492,24.902,16.602,0
1539631684.845,-48.340,-970.703,-928.223,20.508,41.016,0
1539631684.849,-50.293,-971.191,-732.422,23.926,92.773,0
1539631684.853,-45.898,-971.191,-648.438,22.949,62.988,0
1539631684.857,-51.270,-971.191,-764.160,21.484,37.598,0
1539631684.861,-58.594,-970.703,-767.090,22.461,41.016,0
1539631684.864,-57.617,-970.703,-681.641,21.484,20.996,0
1539631684.868,-53.223,-970.703,-709.473,20.020,10.742,0
1539631684.872,-47.852,-971.191,-789.062,16.113,26.855,0
1539631684.876,-52.246,-971.191,-754.883,8.789,37.109,0
1539631684.880,-52.246,-970.703,-731.934,15.137,24.414,0
1539631684.884,-46.875,-971.191,-880.859,27.344,-1.953,0
1539631684.888,-54.199,-971.191,-986.328,19.043,18.066,0
1539631684.892,-49.316,-971.191,-914.551,11.230,35.645,0
1539631684.896,-41.016,-971.191,-811.523,19.531,44.922,0
1539631684.900,-34.668,-971.191,-864.258,29.785,44.922,0
1539631684.904,-25.391,-971.191,-978.516,32.715,5.859,0
1539631684.907,-20.020,-970.703,-948.730,38.574,-7.812,0
1539631684.911,-21.484,-970.703,-867.676,39.551,14.648,0
1539631684.915,-26.855,-971.191,-921.875,30.762,4.883,0
1539631684.919,-27.832,-970.703,-953.613,29.297,44.434,0
1539631684.923,-26.855,-970.703,-909.180,31.250,45.410,0
1539631684.927,-25.391,-971.191,-920.410,29.297,29.785,0
1539631684.931,-22.461,-971.191,-959.961,28.809,-5.371,0
1539631684.935,-25.879,-971.191,-971.191,31.250,-21.484,0
1539631684.939,-29.297,-971.191,-941.406,24.414,12.207,0
1539631684.943,-27.832,-971.191,-940.918,17.090,-16.113,0
1539631684.947,-26.367,-970.703,-970.215,19.531,-11.230,0
1539631684.950,-28.809,-970.703,-964.355,23.438,26.367,0
1539631684.954,-28.320,-970.703,-944.824,23.438,21.973,0
1539631684.958,-26.367,-971.191,-959.961,18.555,26.367,0
1539631684.962,-25.391,-971.191,-950.195,21.484,83.984,0
1539631684.966,-22.461,-971.191,-893.066,26.367,104.004,0
1539631684.970,-23.438,-971.191,-886.230,24.414,44.922,0
1539631684.974,-28.809,-970.703,-922.852,21.973,20.996,0
1539631684.978,-31.250,-970.703,-969.238,22.461,9.766,0
1539631684.982,-31.738,-971.191,-971.680,23.926,20.508,0
1539631684.986,-32.715,-970.703,-969.238,16.113,22.461,0
1539631684.989,-26.367,-971.191,-969.727,10.742,-9.766,0
1539631684.993,-24.902,-971.191,-970.703,10.742,-14.160,0
1539631684.997,-30.273,-971.191,-971.680,8.301,23.926,0
1539631685.001,-23.926,-971.191,-967.773,13.672,2.441,0
1539631685.005,-23.438,-971.191,-967.773,15.137,-17.090,0
1539631685.009,-32.715,-971.191,-972.656,9.766,-2.930,0
1539631685.013,-25.879,-971.191,-955.566,11.719,13.184,0
1539631685.017,-21.484,-971.191,-939.453,19.531,43.945,0
1539631685.021,-24.414,-971.191,-967.285,20.996,44.922,0
1539631685.025,-25.391,-971.191,-973.633,20.020,-36.621,0
1539631685.029,-22.949,-971.191,-969.238,23.926,41.504,0
1539631685.032,-18.066,-971.191,-972.168,20.996,89.844,0
1539631685.036,-18.555,-971.191,-966.797,14.648,47.363,0
1539631685.040,-22.949,-971.191,-976.562,11.719,18.555,0
1539631685.044,-28.320,-971.191,-961.426,4.883,0.000,0
1539631685.048,-30.762,-971.191,-863.770,4.395,108.398,0
1539631685.052,-25.391,-971.191,-914.062,9.766,75.195,0
1539631685.056,-20.996,-971.191,-984.863,8.789,-9.766,0
1539631685.060,-17.578,-971.191,-965.820,10.742,11.719,0
1539631685.064,-16.602,-971.191,-971.191,17.090,-12.695,0
1539631685.068,-17.578,-970.703,-971.191,19.531,-46.387,0
1539631685.072,-20.508,-971.191,-970.703,18.066,9.277,0
1539631685.075,-21.484,-971.191,-971.191,12.695,35.645,0
1539631685.079,-22.461,-971.191,-971.191,13.672,50.781,0
1539631685.083,-19.531,-971.191,-971.191,18.555,49.316,0
1539631685.087,-10.254,-971.191,-969.727,25.879,38.086,0
1539631685.091,-12.207,-971.191,-969.727,21.973,44.434,0
1539631685.095,-26.367,-971.191,-971.191,3.418,-10.742,0
1539631685.099,-31.250,-971.191,-970.703,3.418,-3.906,0
1539631685.103,-34.668,-971.191,-970.703,0.000,46.875,0
1539631685.107,-44.434,-970.703,-970.703,-13.184,7.324,0
1539631685.111,-47.363,-971.191,-971.191,-15.625,25.879,0
1539631685.114,-50.781,-970.703,-970.703,-8.789,58.105,0
1539631685.118,-54.688,-970.703,-971.191,-5.859,-5.859,0
1539631685.122,-55.176,-971.191,-971.191,-10.254,26.855,0
1539631685.126,-47.852,-970.703,-971.191,-11.230,83.984,0
1539631685.130,-37.109,-970.703,-971.191,-7.812,54.688,0
1539631685.134,-37.109,-971.191,-971.191,-2.441,12.207,0
1539631685.138,-37.598,-971.191,-969.727,-2.930,16.113,0
1539631685.142,-32.715,-971.191,-973.633,0.977,44.922,0
1539631685.146,-25.391,-970.703,-964.844,5.371,70.312,0
1539631685.150,-23.926,-971.191,-953.613,1.953,49.316,0
1539631685.154,-26.855,-970.703,-970.215,5.371,38.086,0
1539631685.157,-25.391,-970.703,-972.168,7.324,73.730,0
1539631685.161,-26.855,-970.703,-970.215,0.488,11.719,0
1539631685.165,-24.414,-971.191,-971.191,1.465,14.160,0
1539631685.169,-20.996,-971.191,-970.215,2.441,51.758,0
1539631685.173,-20.508,-970.703,-969.238,0.488,46.387,0
1539631685.177,-24.902,-970.703,-979.004,0.000,28.320,0
1539631685.181,-28.809,-970.703,-914.062,2.930,54.688,0
1539631685.185,-26.367,-970.703,-917.480,6.348,50.293,0
1539631685.189,-18.555,-970.703,-933.105,2.930,64.453,0
1539631685.193,-13.672,-971.191,-930.176,-1.953,91.797,0
1539631685.197,-18.066,-971.191,-911.133,0.000,63.477,0
1539631685.200,-16.113,-971.191,-901.855,6.836,43.457,0
1539631685.204,-13.672,-971.191,-981.445,3.906,-10.742,0
1539631685.208,-20.508,-971.191,-945.312,-1.465,-0.488,0
1539631685.212,-18.555,-971.191,-939.941,5.859,57.617,0
1539631685.216,-11.230,-971.191,-977.539,12.207,64.941,0
1539631685.220,-8.789,-971.191,-964.355,3.418,40.527,0
1539631685.224,-12.207,-971.191,-845.703,0.488,76.172,0
1539631685.228,-12.695,-971.191,-807.617,0.977,68.848,0
1539631685.232,-11.230,-970.703,-945.312,7.324,-2.930,0
1539631685.236,-10.254,-970.703,-949.219,14.160,-0.488,0
1539631685.239,-7.812,-970.703,-875.977,17.578,-3.418,0
1539631685.243,-9.766,-970.703,-846.680,16.113,17.090,0
1539631685.247,-12.207,-970.703,-898.438,12.207,85.449,0
1539631685.251,-10.742,-970.703,-936.035,13.672,78.125,0
1539631685.255,-9.277,-970.703,-863.281,8.789,26.855,0
1539631685.259,-5.371,-971.191,-911.621,8.789,57.129,0
1539631685.263,-1.465,-971.191,-993.652,10.254,74.219,0
1539631685.267,-3.906,-971.191,-913.574,2.930,56.152,0
1539631685.271,-11.230,-970.703,-763.672,4.395,80.566,0
1539631685.275,-10.742,-971.191,-866.211,6.836,1.953,0
1539631685.279,-3.418,-970.703,-937.500,9.277,-2.441,0
1539631685.282,1.465,-970.703,-808.594,13.672,63.965,0
1539631685.286,-3.906,-971.191,-785.156,3.906,26.855,0
1539631685.290,-11.230,-971.191,-863.770,-5.859,39.062,0
1539631685.294,-9.766,-970.703,-890.625,-1.465,54.199,0
1539631685.298,-6.836,-970.703,-804.688,6.348,49.316,0
1539631685.302,-14.648,-971.191,-795.898,0.977,68.359,0
1539631685.306,-21.973,-970.703,-917.480,-7.324,28.809,0
1539631685.310,-20.020,-970.703,-989.746,-9.766,16.113,0
1539631685.314,-12.695,-971.191,-939.453,-6.348,50.293,0
1539631685.318,-7.812,-971.191,-802.246,0.488,68.359,0
1539631685.322,-11.719,-971.191,-870.605,3.906,43.945,0
1539631685.325,-10.254,-971.191,-958.496,3.418,-5.371,0
1539631685.329,-3.906,-971.191,-815.918,7.324,22.949,0
1539631685.333,-5.859,-970.703,-770.996,13.184,69.824,0
1539631685.337,-11.719,-971.191,-897.949,8.301,24.414,0
1539631685.341,-11.230,-970.703,-892.578,1.465,21.484,0
1539631685.345,-11.719,-970.703,-826.172,1.953,25.879,0
1539631685.349,-9.766,-971.191,-806.152,5.859,77.148,0
1539631685.353,-7.324,-971.191,-913.086,10.742,83.984,0
1539631685.357,-0.488,-970.703,-996.582,8.301,0.977,0
1539631685.361,6.348,-970.703,-918.945,4.883,-13.672,1
1539631685.364,6.836,-970.703,-877.930,4.883,41.016,0
1539631685.368,2.441,-970.703,-976.074,2.441,13.184,0
1539631685.372,-3.418,-971.191,-902.344,-1.953,11.230,0
1539631685.376,-7.812,-971.191,-743.164,-2.441,63.477,0
1539631685.380,-8.301,-971.191,-836.426,1.465,66.406,0
1539631685.384,-5.371,-971.191,-930.176,1.465,41.016,0
1539631685.388,-4.883,-970.703,-835.938,0.000,27.832,0
1539631685.392,-5.859,-970.703,-756.836,1.465,84.961,0
1539631685.396,-3.906,-971.191,-832.520,9.766,81.055,0
1539631685.400,0.000,-971.191,-974.121,12.695,40.527,0
1539631685.404,1.465,-970.703,-943.359,11.230,107.422,0
1539631685.407,0.488,-970.703,-830.078,12.207,103.027,0
1539631685.411,1.953,-970.703,-901.855,10.254,11.719,0
1539631685.415,8.301,-970.703,-933.594,14.160,29.785,0
1539631685.419,4.395,-971.191,-751.953,16.113,93.750,0
1539631685.423,-0.977,-970.703,-844.238,12.695,36.133,0
1539631685.427,-2.930,-971.191,-960.449,10.254,22.461,0
1539631685.431,-8.301,-971.191,-865.234,8.789,27.832,0
1539631685.435,-14.160,-970.703,-746.582,9.277,48.828,0
1539631685.439,-12.695,-970.703,-759.277,12.207,75.684,0
1539631685.443,-11.230,-970.703,-839.355,9.277,87.402,0
1539631685.447,-14.648,-971.191,-864.746,9.277,73.730,0
1539631685.450,-15.137,-971.191,-906.250,10.254,45.410,0
1539631685.454,-10.742,-971.191,-914.551,10.254,53.711,0
1539631685.458,-7.324,-970.703,-974.609,6.836,30.762,0
1539631685.462,-8.789,-971.191,-928.223,0.000,-6.836,0
1539631685.466,-8.301,-971.191,-744.629,4.883,8.789,0
1539631685.470,-1.465,-971.191,-770.996,11.230,55.176,0
1539631685.474,-0.488,-971.191,-812.012,7.812,78.125,0
1539631685.478,-2.441,-971.191,-698.730,2.441,78.613,0
1539631685.482,1.953,-971.191,-835.449,4.883,-4.883,0
1539631685.486,-4.395,-970.703,-895.508,7.812,19.043,0
1539631685.489,-15.137,-970.703,-786.133,6.348,87.402,0
1539631685.493,-16.113,-970.703,-849.121,4.395,63.477,0
1539631685.497,-16.113,-971.191,-904.297,2.930,84.473,0
1539631685.501,-17.578,-970.703,-928.223,2.441,47.852,0
1539631685.505,-18.555,-970.703,-947.266,3.906,29.297,0
1539631685.509,-15.625,-971.191,-813.477,4.395,43.945,0
1539631685.513,-12.695,-971.191,-748.535,4.883,35.156,0
1539631685.517,-8.301,-971.191,-826.172,10.742,53.223,0
1539631685.521,-7.812,-971.191,-805.664,15.137,66.406,0
1539631685.525,-18.555,-971.191,-732.910,10.254,52.246,0
1539631685.529,-21.973,-971.191,-742.188,7.812,87.402,0
1539631685.532,-17.090,-971.191,-840.820,12.207,69.824,0
1539631685.536,-20.508,-971.191,-851.074,10.254,7.812,0
1539631685.540,-23.926,-971.191,-888.184,9.277,45.898,0
1539631685.544,-21.484,-970.703,-971.680,11.230,50.781,0
1539631685.548,-20.020,-970.703,-979.004,8.301,38.086,0
1539631685.552,-20.020,-970.703,-888.672,4.395,54.199,0
1539631685.556,-14.648,-971.191,-740.234,4.395,43.457,0
1539631685.560,-12.695,-971.191,-843.262,3.418,10.742,0
1539631685.564,-12.695,-971.191,-935.547,7.812,-1.465,0
1539631685.568,-13.184,-971.191,-813.477,10.254,19.043,0
1539631685.572,-15.625,-970.703,-751.465,7.812,34.668,0
1539631685.575,-17.090,-970.703,-876.953,4.883,2.441,0
1539631685.579,-24.414,-970.703,-929.688,3.906,-1.465,0
1539631685.583,-24.414,-970.703,-833.496,3.418,21.973,0
1539631685.587,-12.695,-970.703,-930.176,7.812,-1.953,0
1539631685.591,-7.324,-971.191,-975.098,9.277,29.297,0
1539631685.595,-6.836,-971.191,-977.051,3.906,11.719,0
1539631685.599,-5.371,-971.191,-933.105,5.859,22.461,0
1539631685.603,-11.719,-970.703,-773.438,9.277,61.523,0
1539631685.607,-14.160,-971.191,-846.680,9.277,12.207,0
1539631685.611,-7.812,-971.191,-885.254,10.254,-4.395,0
1539631685.614,-11.230,-970.703,-742.676,11.230,41.504,0
1539631685.618,-11.719,-970.703,-715.820,8.301,67.871,0
1539631685.622,-10.742,-971.191,-816.895,7.324,43.945,0
1539631685.626,-2.441,-971.191,-821.289,6.348,11.719,0
1539631685.630,3.906,-971.191,-825.684,4.883,-23.438,0
1539631685.634,0.488,-971.191,-931.152,4.883,-18.555,0
1539631685.638,-4.395,-971.191,-983.887,0.000,21.484,0
1539631685.642,-6.836,-971.191,-934.082,1.465,31.738,0
1539631685.646,-9.766,-971.191,-788.086,2.441,54.199,0
1539631685.650,-12.207,-971.191,-830.078,2.930,72.266,0
1539631685.654,-6.348,-971.191,-939.941,5.371,49.316,0
1539631685.657,-3.906,-971.191,-953.125,4.883,41.016,0
1539631685.661,-5.859,-970.703,-898.926,7.812,55.664,0
1539631685.665,-2.441,-970.703,-898.926,8.301,28.320,0
1539631685.669,-0.977,-971.191,-854.980,4.395,84.961,0
1539631685.673,-9.277,-971.191,-756.348,-0.488,82.520,0
1539631685.677,-12.695,-971.191,-801.270,0.977,18.555,0
1539631685.681,-10.254,-971.191,-911.621,1.953,26.855,0
1539631685.685,-13.184,-971.191,-981.445,-2.441,16.602,0
1539631685.689,-17.090,-970.703,-874.512,-3.418,20.508,0
1539631685.693,-19.043,-970.703,-717.285,-0.488,103.027,0
1539631685.697,-9.766,-970.703,-854.004,5.371,78.125,0
1539631685.700,-4.395,-971.191,-897.949,10.254,53.223,0
1539631685.704,-5.371,-971.191,-706.055,6.836,79.590,0
1539631685.708,-6.348,-971.191,-728.516,2.930,62.012,0
1539631685.712,-5.371,-971.191,-900.879,4.395,-8.789,0
1539631685.716,-5.371,-971.191,-983.398,8.301,-62.500,0
1539631685.720,-6.836,-971.191,-875.000,9.277,-15.137,0
1539631685.724,-4.883,-971.191,-836.914,10.254,7.812,0
1539631685.728,-0.488,-971.191,-939.941,15.137,34.180,0
1539631685.732,3.418,-971.191,-993.652,10.742,15.137,0
1539631685.736,3.418,-970.703,-909.180,7.324,-33.691,0
1539631685.739,-0.488,-971.191,-842.773,7.324,16.113,0
1539631685.743,6.836,-971.191,-954.102,12.695,62.500,0
1539631685.747,12.695,-971.191,-900.879,16.602,21.973,0
1539631685.751,0.488,-971.191,-710.938,7.812,24.414,0
1539631685.755,-6.836,-970.703,-770.996,4.395,45.898,0
1539631685.759,-2.930,-971.191,-786.621,4.883,78.125,0
1539631685.763,0.488,-971.191,-619.629,-0.488,113.770,0
1539631685.767,1.953,-971.191,-632.324,-1.465,61.035,0
1539631685.771,2.930,-971.191,-704.102,-0.977,83.008,0
1539631685.775,7.324,-971.191,-855.469,-2.441,45.410,0
1539631685.779,7.812,-971.191,-964.355,-5.859,-15.137,0
1539631685.782,6.348,-971.191,-894.531,-4.883,-5.371,0
1539631685.786,9.766,-971.191,-882.324,-4.395,18.555,0
1539631685.790,16.602,-970.703,-934.570,-6.348,30.273,0
1539631685.794,12.207,-971.191,-732.422,-2.930,31.250,0
1539631685.798,6.348,-971.191,-626.465,3.418,45.898,0
1539631685.802,5.371,-971.191,-718.750,7.812,59.570,0
1539631685.806,12.207,-971.191,-727.051,9.766,65.918,0
1539631685.810,17.090,-971.191,-700.684,9.766,39.062,0
1539631685.814,10.742,-970.703,-798.340,10.742,-5.371,0
1539631685.818,11.719,-971.191,-875.000,17.090,-5.859,0
1539631685.822,13.672,-970.703,-897.461,19.531,20.996,0
1539631685.825,7.324,-971.191,-907.715,11.230,48.340,0
1539631685.829,7.324,-971.191,-890.625,8.789,52.734,0
1539631685.833,7.324,-970.703,-974.609,6.348,33.691,0
1539631685.837,3.418,-970.703,-924.805,0.488,33.691,0
1539631685.841,1.465,-971.191,-807.617,4.395,-19.043,0
1539631685.845,0.977,-971.191,-869.629,0.977,0.488,0
1539631685.849,0.977,-971.191,-876.953,-3.418,45.898,0
1539631685.853,-1.953,-971.191,-717.773,2.930,50.293,0
1539631685.857,-2.441,-971.191,-687.500,4.395,38.086,0
1539631685.861,4.883,-970.703,-742.676,4.395,90.332,0
1539631685.864,7.812,-970.703,-778.320,6.348,69.824,0
1539631685.868,0.488,-971.191,-835.938,7.812,41.992,0
1539631685.872,-3.418,-971.191,-925.293,9.277,37.598,0
1539631685.876,-1.465,-970.703,-961.426,7.324,8.789,0
1539631685.880,1.953,-971.191,-940.918,7.812,35.645,0
1539631685.884,0.488,-971.191,-775.879,4.883,35.645,0
1539631685.888,3.418,-971.191,-777.832,4.883,-9.766,0
1539631685.892,6.836,-971.191,-838.867,9.277,-9.277,0
1539631685.896,7.812,-970.703,-739.258,8.301,20.020,0
1539631685.900,7.324,-970.703,-613.281,10.254,65.918,0
1539631685.904,10.254,-970.703,-670.898,13.184,66.895,0
1539631685.907,8.301,-971.191,-778.809,6.836,72.754,0
1539631685.911,6.348,-971.191,-763.672,2.930,51.270,0
1539631685.915,5.371,-971.191,-836.914,3.906,5.859,0
1539631685.919,0.488,-971.191,-868.164,8.789,66.406,0
1539631685.923,0.488,-971.191,-942.871,9.277,79.102,0
1539631685.927,3.906,-970.703,-900.879,1.953,23.926,0
1539631685.931,2.441,-971.191,-669.434,1.953,50.781,0
1539631685.935,-1.953,-970.703,-732.910,3.906,73.242,0
1539631685.939,1.465,-971.191,-866.699,5.859,20.020,0
1539631685.943,5.371,-971.191,-759.277,5.859,24.414,0
1539631685.947,3.906,-971.191,-827.637,5.371,6.836,0
1539631685.950,7.324,-970.703,-904.785,11.230,1.953,0
1539631685.954,6.348,-970.703,-820.801,11.230,26.855,0
1539631685.958,2.441,-971.191,-716.797,8.789,50.781,0
1539631685.962,1.953,-971.191,-826.660,9.277,62.012,0
1539631685.966,1.953,-971.191,-975.098,12.207,39.062,0
1539631685.970,4.395,-971.191,-958.496,9.766,9.277,0
1539631685.974,5.859,-971.191,-787.109,4.883,41.504,0
1539631685.978,6.348,-971.191,-685.547,4.883,61.035,0
1539631685.982,4.883,-971.191,-877.930,3.418,-24.414,0
1539631685.986,4.395,-971.191,-881.348,5.371,-4.395,0
1539631685.989,2.441,-971.191,-755.859,9.277,16.602,0
1539631685.993,2.441,-970.703,-783.203,9.766,11.719,0
1539631685.997,1.465,-971.191,-887.207,13.184,32.715,0
1539631686.001,3.418,-971.191,-923.828,14.160,29.297,0
1539631686.005,8.789,-971.191,-845.215,9.277,60.059,0
1539631686.009,8.789,-971.191,-854.980,8.301,93.262,0
1539631686.013,10.742,-971.191,-965.820,9.766,69.824,0
1539631686.017,8.789,-970.703,-904.297,6.836,37.598,0
1539631686.021,7.812,-971.191,-745.605,8.301,30.762,0
1539631686.025,12.695,-971.191,-816.406,10.254,41.992,0
1539631686.029,11.719,-971.191,-860.352,8.789,77.148,0
1539631686.032,6.348,-970.703,-725.586,4.395,74.707,0
1539631686.036,5.371,-970.703,-719.727,2.441,28.320,0
1539631686.040,5.859,-970.703,-828.125,0.488,18.555,0
1539631686.044,5.371,-970.703,-874.512,-0.488,11.230,0
1539631686.048,4.883,-971.191,-777.344,-0.977,12.207,0
1539631686.052,7.812,-970.703,-747.070,2.441,31.738,0
1539631686.056,5.859,-971.191,-896.484,6.836,5.371,0
1539631686.060,6.836,-971.191,-992.676,5.859,17.090,0
1539631686.064,11.719,-970.703,-940.918,7.812,32.715,0
1539631686.068,11.719,-971.191,-765.625,13.672,68.848,0
1539631686.072,8.301,-971.191,-829.590,12.695,66.895,0
1539631686.075,11.230,-971.191,-874.512,9.766,68.359,0
1539631686.079,12.207,-971.191,-754.395,5.859,38.086,0
1539631686.083,9.277,-970.703,-732.910,3.906,47.852,0
1539631686.087,11.230,-971.191,-790.527,7.324,67.383,0
1539631686.091,10.742,-971.191,-831.055,1.465,20.996,0
1539631686.095,10.742,-970.703,-784.180,1.465,28.320,0
1539631686.099,12.207,-971.191,-835.938,6.836,24.414,0
1539631686.103,15.137,-971.191,-951.172,5.371,9.277,0
1539631686.107,18.555,-971.191,-992.188,4.883,16.602,0
1539631686.111,15.625,-971.191,-876.465,4.883,47.852,0
1539631686.114,14.160,-971.191,-836.426,7.812,18.555,0
1539631686.118,18.555,-970.703,-987.793,11.230,-6.836,0
1539631686.122,20.020,-971.191,-903.320,12.207,37.598,0
1539631686.126,25.879,-971.191,-739.746,15.625,32.227,0
1539631686.130,27.832,-971.191,-819.336,17.090,35.156,0
1539631686.134,23.438,-971.191,-802.246,15.137,97.168,0
1539631686.138,33.203,-971.191,-683.594,17.090,76.172,0
1539631686.142,44.922,-971.191,-718.262,26.367,-0.488,0
1539631686.146,37.109,-971.191,-804.688,17.090,-0.488,0
1539631686.150,24.414,-971.191,-879.883,4.395,39.062,0
1539631686.154,21.973,-970.703,-847.656,0.977,97.656,0
1539631686.157,19.043,-971.191,-754.883,-3.906,81.543,0
1539631686.161,9.277,-971.191,-845.215,-8.301,28.320,0
1539631686.165,-0.977,-971.191,-958.008,-15.625,20.508,0
1539631686.169,-6.836,-971.191,-778.320,-22.461,16.602,0
1539631686.173,-4.883,-971.191,-660.645,-22.461,41.992,0
1539631686.177,3.906,-971.191,-807.129,-15.137,13.672,0
1539631686.181,6.836,-971.191,-756.836,-8.301,41.992,0
1539631686.185,8.301,-970.703,-663.086,-3.418,-4.395,0
1539631686.189,17.090,-971.191,-763.184,5.371,-64.941,0
1539631686.193,17.090,-971.191,-751.465,3.906,33.203,0
1539631686.197,18.066,-970.703,-773.926,6.348,77.637,0
1539631686.200,20.508,-971.191,-760.742,12.695,70.312,0
1539631686.204,20.508,-971.191,-733.398,13.672,34.180,0
1539631686.208,22.461,-971.191,-939.453,16.113,9.766,0
1539631686.212,23.438,-971.191,-891.602,11.230,4.883,0
1539631686.216,25.391,-971.191,-660.156,10.742,13.672,0
1539631686.220,24.414,-970.703,-719.727,10.742,28.320,0
1539631686.224,25.879,-971.191,-776.367,8.789,45.898,0
1539631686.228,29.297,-971.191,-648.438,11.230,60.547,0
1539631686.232,21.484,-971.191,-653.320,1.465,40.039,0
1539631686.236,12.207,-971.191,-810.547,-8.301,12.695,0
1539631686.239,15.137,-971.191,-846.680,-8.789,-9.277,0
1539631686.243,19.531,-971.191,-781.250,-10.742,70.801,0
1539631686.247,15.625,-971.191,-868.164,-11.719,40.039,0
1539631686.251,17.090,-970.703,-956.055,-8.301,-21.484,0
1539631686.255,22.949,-970.703,-929.688,-6.836,10.742,0
1539631686.259,21.973,-971.191,-800.293,-5.859,-21.973,0
1539631686.263,21.973,-971.191,-738.770,2.930,-27.832,0
1539631686.267,24.414,-970.703,-793.945,9.766,13.184,0
1539631686.271,28.809,-970.703,-756.348,13.672,47.363,0
1539631686.275,27.344,-971.191,-654.297,14.648,60.059,0
1539631686.279,17.578,-970.703,-676.758,9.766,67.871,0
1539631686.282,7.324,-971.191,-745.117,7.812,65.430,0
1539631686.286,4.395,-971.191,-687.012,6.348,69.336,0
1539631686.290,6.836,-970.703,-780.273,3.906,53.223,0
1539631686.294,9.766,-970.703,-950.195,6.836,15.137,0
1539631686.298,7.324,-970.703,-979.492,8.301,11.230,0
1539631686.302,5.859,-970.703,-851.074,6.348,34.668,0
1539631686.306,9.277,-971.191,-660.645,4.395,49.316,0
1539631686.310,10.742,-971.191,-778.320,0.977,22.949,0
1539631686.314,6.348,-971.191,-900.879,-0.977,-21.973,0
1539631686.318,8.301,-970.703,-759.277,-2.930,-15.625,0
1539631686.322,11.719,-971.191,-638.672,-3.418,52.734,0
1539631686.325,9.277,-971.191,-722.168,-3.906,64.941,0
1539631686.329,16.602,-971.191,-777.832,-4.395,52.734,0
1539631686.333,23.926,-971.191,-695.312,2.441,40.039,0
1539631686.337,25.879,-971.191,-784.180,11.719,51.270,0
1539631686.341,27.832,-971.191,-938.477,14.160,53.223,0
1539631686.345,27.344,-971.191,-951.660,12.207,11.719,0
1539631686.349,24.902,-971.191,-818.359,14.648,25.879,0
1539631686.353,23.926,-971.191,-704.102,20.020,100.586,0
1539631686.357,20.020,-970.703,-750.000,17.090,64.941,0
1539631686.361,23.438,-970.703,-755.371,10.742,19.531,0
1539631686.364,28.320,-971.191,-625.000,10.254,58.594,0
1539631686.368,25.391,-971.191,-658.691,11.230,25.391,0
1539631686.372,27.832,-970.703,-729.004,10.742,35.156,0
1539631686.376,29.785,-971.191,-669.434,11.719,59.570,0
1539631686.380,26.855,-971.191,-646.973,12.207,16.602,0
1539631686.384,32.227,-971.191,-779.785,17.578,6.348,0
1539631686.388,36.133,-971.191,-972.168,14.648,43.457,0
1539631686.392,37.109,-971.191,-869.629,5.371,69.824,0
1539631686.396,42.480,-970.703,-616.699,9.277,67.871,0
1539631686.400,41.504,-971.191,-725.586,9.277,24.414,0
1539631686.404,37.598,-971.191,-864.746,6.348,-32.715,0
1539631686.407,36.621,-971.191,-776.855,4.883,14.160,0
1539631686.411,30.273,-970.703,-768.066,5.371,11.230,0
1539631686.415,26.855,-971.191,-774.902,11.230,24.902,0
1539631686.419,28.809,-971.191,-834.473,17.090,36.133,0
1539631686.423,22.461,-971.191,-790.527,16.113,17.578,0
1539631686.427,15.137,-970.703,-686.523,15.625,54.688,0
1539631686.431,18.555,-971.191,-874.512,20.996,30.762,0
1539631686.435,22.949,-971.191,-940.430,24.902,56.152,0
1539631686.439,22.949,-971.191,-756.348,23.438,43.945,0
1539631686.443,19.043,-970.703,-663.086,19.531,57.617,0
1539631686.447,20.996,-971.191,-831.055,15.625,11.230,0
1539631686.450,27.832,-971.191,-927.246,17.578,-51.758,0
1539631686.454,24.902,-971.191,-776.855,18.555,-30.762,0
1539631686.458,13.672,-971.191,-751.465,10.742,1.465,0
1539631686.462,8.789,-971.191,-759.766,5.859,62.500,0
1539631686.466,12.207,-971.191,-790.527,8.789,68.848,0
1539631686.470,16.602,-971.191,-824.707,12.207,34.668,0
1539631686.474,18.555,-971.191,-783.691,9.766,34.180,0
1539631686.478,20.996,-970.703,-826.172,9.277,92.773,0
1539631686.482,29.297,-971.191,-852.539,16.113,124.023,0
1539631686.486,35.156,-971.191,-733.398,21.973,99.121,0
1539631686.489,40.527,-971.191,-748.047,27.832,70.801,0
1539631686.493,45.898,-970.703,-972.168,25.879,3.906,0
1539631686.497,36.621,-971.191,-932.129,23.438,-26.855,0
1539631686.501,27.344,-971.191,-723.145,29.785,31.738,0
1539631686.505,32.227,-971.191,-763.184,33.691,59.570,0
1539631686.509,35.156,-971.191,-843.262,34.668,21.973,0
1539631686.513,32.227,-971.191,-717.285,34.668,18.555,0
1539631686.517,25.391,-970.703,-652.832,35.156,40.039,0
1539631686.521,23.438,-970.703,-708.984,33.203,69.336,0
1539631686.525,25.879,-971.191,-888.672,25.879,28.320,0
1539631686.529,24.902,-971.191,-943.359,26.367,1.465,0
1539631686.532,20.020,-970.703,-805.176,29.297,40.039,0
1539631686.536,19.531,-970.703,-768.555,27.344,55.664,0
1539631686.540,23.438,-970.703,-771.973,22.461,39.551,0
1539631686.544,25.391,-971.191,-668.945,20.020,35.156,0
1539631686.548,25.879,-970.703,-571.777,22.949,75.684,0
1539631686.552,21.484,-970.703,-797.852,20.508,81.543,0
1539631686.556,17.578,-970.703,-911.133,15.137,89.844,0
1539631686.560,17.578,-970.703,-686.035,12.207,56.641,0
1539631686.564,18.066,-971.191,-691.895,14.160,27.344,0
1539631686.568,17.578,-971.191,-771.484,18.555,38.574,0
1539631686.572,19.043,-971.191,-799.316,21.484,80.078,0
1539631686.575,20.508,-971.191,-758.301,19.531,120.605,0
1539631686.579,18.555,-971.191,-785.645,15.137,28.320,0
1539631686.583,19.043,-971.191,-956.543,15.137,13.672,0
1539631686.587,21.973,-971.191,-923.340,13.184,4.395,0
1539631686.591,20.020,-971.191,-729.492,12.207,-29.785,0
1539631686.595,21.484,-971.191,-773.438,15.137,4.395,0
1539631686.599,28.809,-970.703,-835.449,16.602,-2.441,0
1539631686.603,30.273,-970.703,-657.227,19.043,34.180,0
1539631686.607,24.902,-971.191,-653.809,21.973,-1.465,0
1539631686.611,26.855,-970.703,-740.723,19.043,12.207,0
1539631686.614,34.668,-971.191,-726.074,20.020,46.387,0
1539631686.618,36.133,-971.191,-826.660,25.391,-7.324,0
1539631686.622,34.668,-970.703,-825.684,23.926,-13.184,0
1539631686.626,31.738,-970.703,-814.453,20.508,51.270,0
1539631686.630,29.785,-970.703,-920.898,17.578,78.613,0
1539631686.634,30.273,-971.191,-707.520,20.996,66.406,0
1539631686.638,25.879,-971.191,-575.195,15.625,81.055,0
1539631686.642,21.484,-970.703,-713.379,7.324,63.477,0
1539631686.646,20.508,-970.703,-781.250,4.395,2.441,0
1539631686.650,20.508,-970.703,-638.184,5.371,39.551,0
1539631686.654,18.555,-970.703,-641.113,9.277,51.758,0
1539631686.657,18.066,-970.703,-748.047,6.836,34.180,0
1539631686.661,23.438,-970.703,-712.402,9.277,39.062,0
1539631686.665,24.414,-970.703,-765.137,17.090,26.367,0
1539631686.669,28.320,-970.703,-871.582,21.484,19.531,0
1539631686.673,31.738,-970.703,-958.984,22.461,43.457,0
1539631686.677,27.344,-970.703,-887.207,19.043,41.016,0
1539631686.681,24.902,-971.191,-712.891,16.113,-20.996,0
1539631686.685,28.320,-970.703,-771.973,20.020,-20.508,0
1539631686.689,25.879,-970.703,-846.680,19.531,-15.625,0
1539631686.693,20.996,-970.703,-684.082,11.719,29.785,0
1539631686.697,24.902,-970.703,-626.465,14.648,66.406,0
1539631686.700,30.762,-971.191,-805.176,21.973,34.668,0
1539631686.704,29.297,-971.191,-797.363,23.438,41.992,0
1539631686.708,24.902,-971.191,-689.941,18.555,44.434,0
1539631686.712,27.832,-971.191,-761.230,18.555,73.730,0
1539631686.716,30.762,-971.191,-915.527,20.996,54.688,0
1539631686.720,27.832,-970.703,-969.727,13.672,30.762,0
1539631686.724,20.020,-970.703,-810.547,9.766,35.645,0
1539631686.728,13.184,-970.703,-691.895,9.766,40.527,0
1539631686.732,14.160,-971.191,-763.672,10.254,59.082,0
1539631686.736,15.137,-971.191,-840.332,7.324,-13.184,0
1539631686.739,14.160,-971.191,-807.129,2.930,-62.012,0
1539631686.743,17.578,-971.191,-764.648,1.953,6.836,0
1539631686.747,19.531,-970.703,-848.633,5.371,2.441,1
1539631686.751,16.602,-971.191,-846.680,6.836,-47.852,0
1539631686.755,16.602,-971.191,-807.617,11.230,2.930,0
1539631686.759,22.461,-971.191,-906.738,18.066,21.973,0
1539631686.763,26.367,-971.191,-991.699,20.996,-26.367,0
1539631686.767,20.020,-971.191,-897.461,16.602,11.719,0
1539631686.771,18.066,-970.703,-698.242,14.160,42.480,0
1539631686.775,20.020,-970.703,-754.395,18.066,40.039,0
1539631686.779,18.066,-971.191,-838.379,16.602,43.945,0
1539631686.782,17.090,-971.191,-740.234,14.648,37.598,0
1539631686.786,18.066,-970.703,-643.555,15.625,94.238,0
1539631686.790,18.066,-970.703,-691.406,14.648,147.949,0
1539631686.794,20.020,-971.191,-811.035,9.766,90.820,0
1539631686.798,16.113,-971.191,-707.520,5.371,108.398,0
1539631686.802,15.625,-970.703,-703.613,8.789,88.867,0
1539631686.806,19.043,-970.703,-886.719,11.719,14.160,0
1539631686.810,16.113,-971.191,-962.402,6.348,-11.719,0
1539631686.814,18.066,-971.191,-891.113,5.859,24.414,0
1539631686.818,19.531,-971.191,-799.316,13.672,44.434,0
1539631686.822,21.973,-971.191,-875.977,16.602,20.996,0
1539631686.825,24.414,-971.191,-876.465,13.184,63.477,0
1539631686.829,25.391,-970.703,-746.582,13.184,46.875,0
1539631686.833,21.484,-970.703,-803.223,11.719,-13.672,0
1539631686.837,17.090,-971.191,-833.496,9.277,18.555,0
1539631686.841,20.020,-971.191,-867.676,9.277,15.137,0
1539631686.845,22.949,-970.703,-823.730,10.742,11.230,0
1539631686.849,24.414,-971.191,-785.156,8.789,32.227,0
1539631686.853,25.391,-971.191,-927.246,9.277,8.301,0
1539631686.857,23.926,-971.191,-983.398,11.230,29.297,0
1539631686.861,23.438,-971.191,-833.984,6.348,93.750,0
1539631686.864,23.438,-970.703,-767.578,3.418,92.285,0
1539631686.868,24.414,-971.191,-910.645,2.930,109.863,0
1539631686.872,26.367,-971.191,-906.738,1.465,101.074,0
1539631686.876,25.391,-970.703,-764.648,2.930,55.176,0
1539631686.880,23.926,-971.191,-759.277,3.906,78.125,0
1539631686.884,21.484,-971.191,-751.953,7.812,122.070,0
1539631686.888,16.602,-971.191,-715.820,8.301,36.133,0
1539631686.892,18.066,-971.191,-708.008,5.859,24.414,0
1539631686.896,20.996,-971.191,-709.473,8.789,100.586,0
1539631686.900,19.043,-971.191,-825.195,10.742,83.496,0
1539631686.904,16.602,-971.191,-832.031,14.160,96.191,0
1539631686.907,16.602,-971.191,-782.715,10.742,78.613,0
1539631686.911,20.508,-971.191,-853.027,8.301,30.273,0
1539631686.915,21.973,-971.191,-933.105,9.277,3.906,0
1539631686.919,18.066,-971.191,-757.324,6.836,18.555,0
1539631686.923,19.043,-970.703,-668.457,9.766,33.203,0
1539631686.927,21.973,-971.191,-785.645,10.742,20.996,0
1539631686.931,28.320,-970.703,-905.273,14.160,-31.738,0
1539631686.935,36.621,-970.703,-726.074,24.902,36.133,0
1539631686.939,31.738,-971.191,-645.020,23.438,60.547,0
1539631686.943,21.973,-971.191,-787.109,19.043,-4.395,0
1539631686.947,19.043,-971.191,-819.336,19.043,30.762,0
1539631686.950,19.531,-971.191,-830.566,18.066,39.062,0
1539631686.954,14.160,-970.703,-810.059,18.555,30.273,0
1539631686.958,8.301,-971.191,-932.129,12.207,88.379,0
1539631686.962,17.090,-971.191,-889.648,12.695,87.402,0
1539631686.966,18.066,-970.703,-631.836,15.625,86.426,0
1539631686.970,13.184,-970.703,-720.703,14.648,61.523,0
1539631686.974,18.555,-971.191,-811.523,16.113,28.320,0
1539631686.978,25.391,-971.191,-694.824,16.113,14.160,0
1539631686.982,24.902,-970.703,-670.898,17.578,-2.930,0
1539631686.986,22.461,-971.191,-728.516,19.531,37.598,0
1539631686.989,23.926,-971.191,-832.031,21.973,42.969,0
1539631686.993,24.414,-971.191,-908.691,22.949,-21.973,0
1539631686.997,23.438,-971.191,-943.848,24.902,-70.312,0
1539631687.001,23.926,-971.191,-961.914,24.902,3.418,0
1539631687.005,23.438,-971.191,-929.688,19.531,48.340,0
1539631687.009,28.809,-970.703,-738.281,16.602,0.000,0
1539631687.013,34.668,-971.191,-596.680,17.090,27.832,0
1539631687.017,31.738,-971.191,-679.199,16.113,35.156,0
1539631687.021,29.297,-971.191,-677.246,12.695,42.480,0
1539631687.025,31.250,-971.191,-541.016,10.254,97.656,0
1539631687.029,33.203,-970.703,-579.102,9.766,88.379,0
1539631687.032,33.203,-971.191,-716.309,14.160,21.973,0
1539631687.036,33.691,-971.191,-659.180,11.719,39.551,0
1539631687.040,34.180,-971.191,-685.059,8.789,65.918,0
1539631687.044,33.691,-971.191,-789.551,12.207,87.891,0
1539631687.048,33.203,-971.191,-925.781,11.230,78.125,0
1539631687.052,33.203,-971.191,-896.973,14.648,37.598,0
1539631687.056,29.297,-971.191,-623.535,14.648,74.707,0
1539631687.060,26.367,-970.703,-650.391,11.719,94.727,0
1539631687.064,25.879,-971.191,-782.227,18.555,44.922,0
1539631687.068,22.461,-971.191,-677.246,16.113,22.461,0
1539631687.072,23.438,-971.191,-592.285,15.137,57.617,0
1539631687.075,23.438,-971.191,-705.078,17.578,48.828,0
1539631687.079,24.902,-971.191,-743.164,16.602,52.734,0
1539631687.083,25.391,-971.191,-629.395,17.578,72.266,0
1539631687.087,23.926,-971.191,-734.375,20.996,70.801,0
1539631687.091,23.926,-971.191,-924.316,19.043,62.500,0
1539631687.095,24.414,-971.191,-901.855,10.254,28.320,0
1539631687.099,23.438,-971.191,-708.008,9.277,29.785,0
1539631687.103,21.973,-971.191,-706.055,11.230,29.785,0
1539631687.107,25.879,-971.191,-904.297,8.301,25.391,0
1539631687.111,29.297,-971.191,-906.738,7.812,28.320,0
1539631687.114,32.227,-971.191,-674.805,7.812,46.387,0
1539631687.118,35.156,-970.703,-614.258,6.348,63.477,0
1539631687.122,34.180,-970.703,-748.535,8.301,16.113,0
1539631687.126,39.551,-971.191,-747.070,8.789,-3.906,0
1539631687.130,40.527,-971.191,-662.109,11.230,15.137,0
1539631687.134,40.527,-971.191,-751.953,17.090,39.062,0
1539631687.138,40.039,-971.191,-949.219,14.648,51.270,0
1539631687.142,38.574,-971.191,-889.160,12.695,28.320,0
1539631687.146,38.086,-971.191,-654.785,15.137,17.090,0
1539631687.150,34.668,-971.191,-685.547,14.648,24.902,0
1539631687.154,34.180,-971.191,-745.117,13.184,41.504,0
1539631687.157,30.273,-971.191,-579.102,9.277,71.777,0
1539631687.161,27.832,-971.191,-612.305,12.695,60.059,0
1539631687.165,26.855,-970.703,-779.297,10.254,43.945,0
1539631687.169,26.855,-971.191,-715.820,4.395,33.203,0
1539631687.173,25.391,-971.191,-611.328,11.719,-2.441,0
1539631687.177,24.414,-971.191,-567.871,9.277,16.602,0
1539631687.181,28.320,-971.191,-785.645,7.812,-17.090,0
1539631687.185,27.344,-971.191,-915.039,10.742,-56.641,0
1539631687.189,20.020,-971.191,-648.926,6.836,6.836,0
1539631687.193,17.578,-971.191,-548.340,4.883,11.719,0
1539631687.197,17.578,-971.191,-750.977,1.465,-24.414,0
1539631687.200,21.484,-971.191,-795.410,0.000,-26.367,0
1539631687.204,19.043,-971.191,-537.109,2.441,59.570,0
1539631687.208,13.184,-971.191,-545.898,-1.953,43.457,0
1539631687.212,20.996,-971.191,-703.125,0.488,-24.414,0
1539631687.216,30.762,-971.191,-597.656,7.812,57.129,0
1539631687.220,33.691,-971.191,-577.148,6.836,60.547,0
1539631687.224,42.480,-971.191,-720.215,10.254,-19.531,0
1539631687.228,51.270,-971.191,-751.465,17.090,41.504,0
1539631687.232,49.805,-971.191,-759.277,22.461,83.984,0
1539631687.236,46.875,-971.191,-642.578,20.996,49.805,0
1539631687.239,41.504,-971.191,-604.980,16.602,44.922,0
1539631687.243,44.434,-971.191,-894.531,15.625,1.953,0
1539631687.247,44.922,-971.191,-855.469,18.555,-31.250,0
1539631687.251,39.062,-971.191,-528.320,15.137,55.664,0
1539631687.255,34.668,-971.191,-602.051,11.719,85.938,0
1539631687.259,35.645,-971.191,-691.406,17.090,72.266,0
1539631687.263,34.668,-971.191,-614.258,24.414,68.359,0
1539631687.267,28.320,-971.191,-604.492,21.973,44.922,0
1539631687.271,25.879,-971.191,-673.340,14.160,31.250,0
1539631687.275,22.461,-971.191,-742.676,12.207,89.355,0
1539631687.279,13.672,-971.191,-757.324,4.883,88.867,0
1539631687.282,11.230,-971.191,-779.297,0.488,32.227,0
1539631687.286,13.672,-971.191,-835.449,0.977,24.902,0
1539631687.290,13.672,-971.191,-886.230,2.930,8.789,0
1539631687.294,15.625,-971.191,-651.367,11.719,51.270,0
1539631687.298,16.113,-971.191,-575.684,16.602,34.668,0
1539631687.302,17.578,-971.191,-689.453,13.672,6.348,0
1539631687.306,20.996,-971.191,-668.945,10.254,21.484,0
1539631687.310,20.020,-971.191,-575.684,19.531,42.480,0
1539631687.314,18.555,-971.191,-602.051,23.438,59.082,0
1539631687.318,18.555,-971.191,-718.262,20.020,21.973,0
1539631687.322,18.555,-970.703,-784.180,27.344,16.602,0
1539631687.325,21.484,-971.191,-789.062,28.320,58.105,0
1539631687.329,24.414,-971.191,-831.055,21.484,36.133,0
1539631687.333,25.879,-970.703,-955.078,13.184,8.789,0
1539631687.337,33.691,-971.191,-929.688,9.766,6.836,0
1539631687.341,34.180,-971.191,-706.055,10.254,17.090,0
1539631687.345,28.320,-971.191,-719.727,11.719,41.504,0
1539631687.349,30.762,-971.191,-797.852,6.348,35.645,0
1539631687.353,31.250,-971.191,-682.129,-2.930,31.738,0
1539631687.357,25.879,-971.191,-673.828,-0.977,16.113,0
1539631687.361,24.414,-970.703,-783.691,0.000,12.207,0
1539631687.364,22.949,-970.703,-860.352,-4.883,-21.484,0
1539631687.368,19.043,-971.191,-861.816,-8.789,4.395,0
1539631687.372,17.090,-971.191,-924.316,-9.766,12.695,0
1539631687.376,14.648,-971.191,-979.004,-9.277,-34.180,0
1539631687.380,13.184,-971.191,-932.129,-8.301,-6.836,0
1539631687.384,10.742,-971.191,-796.875,-7.324,5.859,0
1539631687.388,6.836,-971.191,-672.363,-3.906,37.598,0
1539631687.392,10.742,-971.191,-807.129,-2.930,49.316,0
1539631687.396,13.672,-970.703,-903.320,1.953,50.293,0
1539631687.400,9.766,-971.191,-681.641,8.301,97.168,0
1539631687.404,12.207,-971.191,-665.039,12.207,68.359,0
1539631687.407,14.160,-971.191,-820.801,12.207,7.812,0
1539631687.411,14.648,-970.703,-796.875,11.230,10.742,0
1539631687.415,9.277,-971.191,-831.543,12.695,17.090,0
1539631687.419,5.859,-970.703,-924.805,11.719,24.414,0
1539631687.423,6.836,-970.703,-960.938,12.695,63.477,0
1539631687.427,4.883,-971.191,-882.812,11.230,52.246,0
1539631687.431,2.930,-971.191,-703.613,8.301,20.996,0
1539631687.435,2.930,-971.191,-761.719,8.301,19.043,0
1539631687.439,0.977,-971.191,-833.496,7.324,15.625,0
1539631687.443,-1.465,-971.191,-669.922,2.441,63.965,0
1539631687.447,-4.395,-971.191,-580.078,0.000,105.957,0
1539631687.450,-6.348,-971.191,-704.590,-1.465,73.242,0
1539631687.454,-4.395,-971.191,-763.672,-0.977,46.387,0
1539631687.458,-3.906,-970.703,-714.355,-1.953,9.277,0
1539631687.462,-4.395,-971.191,-817.383,-5.859,11.230,0
1539631687.466,0.977,-971.191,-932.617,-6.836,53.223,0
1539631687.470,3.906,-971.191,-937.500,-12.695,36.621,0
1539631687.474,-1.465,-971.191,-802.734,-14.648,35.645,0
1539631687.478,-1.953,-971.191,-746.094,-10.742,-12.695,0
1539631687.482,3.418,-970.703,-757.324,-7.324,7.812,0
1539631687.486,4.395,-971.191,-737.793,-1.465,18.066,0
1539631687.489,0.977,-971.191,-695.801,3.418,-29.297,0
1539631687.493,-3.906,-971.191,-649.902,5.371,41.016,0
1539631687.497,-5.371,-970.703,-691.406,8.301,74.219,0
1539631687.501,-0.488,-971.191,-640.137,13.672,87.402,0
1539631687.505,0.488,-971.191,-596.680,15.137,79.102,0
1539631687.509,-1.465,-970.703,-792.480,13.672,17.578,0
1539631687.513,3.418,-970.703,-986.328,15.625,23.438,0
1539631687.517,4.395,-971.191,-902.344,18.066,62.500,0
1539631687.521,3.906,-971.191,-695.312,18.555,22.949,0
1539631687.525,0.977,-971.191,-725.098,16.113,22.461,0
1539631687.529,-2.930,-971.191,-814.941,13.672,24.414,0
1539631687.532,1.953,-971.191,-688.965,17.090,26.855,0
1539631687.536,3.906,-971.191,-636.719,18.066,15.137,0
1539631687.540,5.371,-971.191,-753.906,18.066,-0.488,0
1539631687.544,11.230,-971.191,-782.227,20.996,25.879,0
1539631687.548,11.719,-970.703,-672.852,19.043,47.363,0
1539631687.552,9.766,-971.191,-591.797,18.555,70.312,0
1539631687.556,9.766,-971.191,-800.293,19.043,78.125,0
1539631687.560,9.766,-971.191,-898.926,14.648,110.840,0
1539631687.564,3.906,-971.191,-695.312,10.254,64.453,0
1539631687.568,-5.371,-970.703,-657.227,10.254,52.246,0
1539631687.572,-7.812,-970.703,-831.543,10.742,69.824,0
1539631687.575,-4.883,-971.191,-868.164,8.301,49.316,0
1539631687.579,-3.906,-971.191,-612.305,6.836,94.238,0
1539631687.583,-0.977,-970.703,-563.965,4.395,110.840,0
1539631687.587,4.883,-971.191,-658.691,3.906,96.680,0
1539631687.591,6.836,-971.191,-714.355,1.465,31.250,0
1539631687.595,5.371,-971.191,-690.430,-2.930,6.836,0
1539631687.599,10.254,-971.191,-726.562,2.441,6.836,0
1539631687.603,15.137,-971.191,-823.730,11.719,40.527,0
1539631687.607,18.555,-970.703,-861.328,15.625,67.383,0
1539631687.611,23.438,-970.703,-765.625,13.184,49.316,0
1539631687.614,28.809,-971.191,-766.113,13.672,23.926,0
1539631687.618,30.762,-970.703,-946.289,13.184,12.207,0
1539631687.622,29.297,-970.703,-863.281,8.789,28.809,0
1539631687.626,30.762,-971.191,-795.898,7.324,14.160,0
1539631687.630,30.762,-971.191,-867.676,9.277,27.344,0
1539631687.634,31.250,-971.191,-818.848,12.207,35.645,0
1539631687.638,33.203,-971.191,-705.566,17.090,19.043,0
1539631687.642,34.180,-971.191,-687.500,17.090,12.207,0
1539631687.646,34.668,-971.191,-763.672,14.648,26.855,0
1539631687.650,34.668,-971.191,-873.535,19.531,19.043,0
1539631687.654,33.691,-971.191,-841.309,23.438,52.246,0
1539631687.657,34.668,-970.703,-742.188,22.461,45.410,0
1539631687.661,40.039,-971.191,-844.238,20.020,-0.488,0
1539631687.665,42.480,-971.191,-927.734,21.484,-11.230,0
1539631687.669,41.992,-971.191,-683.594,23.926,30.762,0
1539631687.673,39.062,-971.191,-576.660,17.578,72.754,0
1539631687.677,34.668,-971.191,-717.773,12.207,47.363,0
1539631687.681,32.715,-971.191,-730.469,10.254,37.598,0
1539631687.685,29.297,-971.191,-747.070,11.719,31.250,0
1539631687.689,24.902,-971.191,-822.266,11.230,20.996,0
1539631687.693,22.949,-970.703,-757.812,7.812,58.594,0
1539631687.697,22.949,-971.191,-745.605,8.301,87.402,0
1539631687.700,21.484,-971.191,-859.375,6.836,29.785,0
1539631687.704,20.508,-971.191,-868.652,6.348,18.066,0
1539631687.708,23.926,-971.191,-931.152,3.418,36.621,0
1539631687.712,21.973,-971.191,-872.559,1.953,31.250,0
1539631687.716,11.230,-971.191,-642.090,7.812,31.738,0
1539631687.720,12.207,-971.191,-755.371,9.277,0.488,0
1539631687.724,20.508,-971.191,-819.336,6.836,20.508,0
1539631687.728,23.926,-971.191,-643.066,9.277,71.777,0
1539631687.732,32.227,-971.191,-674.316,12.695,6.348,0
1539631687.736,34.668,-971.191,-795.410,13.672,-28.809,0
1539631687.739,30.762,-971.191,-822.266,10.254,20.020,0
1539631687.743,32.715,-971.191,-919.434,6.348,-30.273,0
1539631687.747,32.715,-971.191,-947.754,7.324,-40.039,0
1539631687.751,28.320,-971.191,-933.105,10.742,14.160,0
1539631687.755,28.809,-970.703,-921.387,9.766,26.855,0
1539631687.759,28.320,-971.191,-700.195,4.395,40.527,0
1539631687.763,27.832,-971.191,-578.125,6.836,43.945,0
1539631687.767,23.438,-970.703,-684.570,8.789,26.367,0
1539631687.771,20.508,-971.191,-683.105,7.812,40.039,0
1539631687.775,22.461,-971.191,-630.859,10.742,14.160,0
1539631687.779,19.043,-970.703,-680.664,11.230,9.766,0
1539631687.782,18.066,-971.191,-743.164,12.695,23.926,0
1539631687.786,22.461,-971.191,-711.426,13.672,12.695,0
1539631687.790,22.461,-971.191,-757.812,12.695,18.555,0
1539631687.794,21.484,-970.703,-847.168,14.648,57.617,0
1539631687.798,22.949,-970.703,-962.402,14.160,22.949,0
1539631687.802,21.484,-971.191,-851.562,11.230,34.668,0
1539631687.806,19.531,-971.191,-583.984,14.160,96.680,0
1539631687.810,21.973,-971.191,-747.559,17.090,3.906,0
1539631687.814,25.391,-970.703,-855.469,14.160,-4.883,0
1539631687.818,26.367,-970.703,-669.922,10.742,65.918,0
1539631687.822,28.809,-971.191,-616.211,11.230,53.711,0
1539631687.825,29.297,-971.191,-792.480,9.766,7.324,0
1539631687.829,26.367,-971.191,-827.148,5.371,35.645,0
1539631687.833,32.715,-971.191,-690.430,5.371,51.270,0
1539631687.837,35.156,-971.191,-780.273,7.324,36.621,0
1539631687.841,32.227,-970.703,-931.641,7.324,27.832,0
1539631687.845,32.715,-971.191,-945.801,6.836,48.340,0
1539631687.849,32.227,-971.191,-741.211,4.883,90.820,0
1539631687.853,35.645,-971.191,-636.719,8.789,73.242,0
1539631687.857,35.156,-971.191,-793.457,8.789,65.918,0
1539631687.861,35.156,-971.191,-790.527,5.371,107.910,0
1539631687.864,35.645,-971.191,-682.617,5.371,83.984,0
1539631687.868,33.691,-970.703,-725.098,4.883,50.781,0
1539631687.872,33.691,-971.191,-818.359,5.371,49.316,0
1539631687.876,32.227,-971.191,-840.820,8.789,15.137,0
1539631687.880,28.320,-971.191,-769.043,13.672,50.781,0
1539631687.884,29.297,-971.191,-865.234,16.113,52.734,0
1539631687.888,28.809,-971.191,-994.629,13.672,7.324,0
1539631687.892,24.414,-971.191,-922.852,5.859,36.133,0
1539631687.896,25.879,-971.191,-872.070,4.395,16.113,0
1539631687.900,26.855,-971.191,-923.828,7.324,14.160,0
1539631687.904,22.461,-971.191,-908.691,1.953,43.945,0
1539631687.907,22.949,-971.191,-814.453,-2.930,41.992,0
1539631687.911,19.531,-971.191,-753.418,-5.859,47.363,0
1539631687.915,20.020,-971.191,-849.121,-5.859,73.730,0
1539631687.919,25.391,-970.703,-901.855,-0.488,50.781,0
1539631687.923,25.391,-971.191,-788.086,3.906,38.086,0
1539631687.927,28.320,-971.191,-773.926,11.719,45.410,0
1539631687.931,34.668,-971.191,-898.438,16.602,60.547,0
1539631687.935,36.133,-971.191,-979.492,14.160,35.156,0
1539631687.939,37.598,-971.191,-870.117,13.672,13.184,0
1539631687.943,41.504,-971.191,-765.137,15.625,42.969,0
1539631687.947,36.133,-971.191,-877.930,15.137,29.785,0
1539631687.950,30.762,-970.703,-905.762,11.230,37.109,0
1539631687.954,29.785,-970.703,-784.668,10.254,51.758,0
1539631687.958,29.785,-971.191,-759.277,4.883,71.777,0
1539631687.962,28.320,-971.191,-881.348,3.418,35.645,0
1539631687.966,25.879,-971.191,-937.988,4.395,-33.203,0
1539631687.970,23.438,-971.191,-799.805,-1.465,40.039,0
1539631687.974,19.531,-971.191,-864.258,-0.977,70.801,0
1539631687.978,14.648,-971.191,-975.586,1.465,31.738,0
1539631687.982,11.719,-971.191,-975.586,3.418,23.926,0
1539631687.986,14.648,-971.191,-916.504,9.277,-14.648,0
1539631687.989,19.531,-970.703,-873.535,12.207,-6.348,0
1539631687.993,19.531,-970.703,-952.148,8.789,61.523,0
1539631687.997,19.531,-970.703,-852.051,9.277,74.219,0
1539631688.001,23.438,-971.191,-759.766,12.695,0.977,0
1539631688.005,27.344,-971.191,-860.352,11.719,-5.859,0
1539631688.009,28.809,-971.191,-832.520,10.254,89.844,0
1539631688.013,29.785,-971.191,-820.801,10.254,13.672,0
1539631688.017,33.203,-971.191,-822.266,11.230,-20.508,0
1539631688.021,36.621,-971.191,-853.027,10.254,22.461,0
1539631688.025,37.598,-971.191,-972.168,11.719,-14.648,0
1539631688.029,37.598,-971.191,-977.051,10.254,-18.555,0
1539631688.032,39.062,-970.703,-878.418,11.230,71.777,0
1539631688.036,41.992,-970.703,-863.770,17.090,79.590,0
1539631688.040,41.504,-970.703,-981.445,13.672,-41.992,0
1539631688.044,40.527,-970.703,-866.699,12.695,-54.688,0
1539631688.048,39.551,-970.703,-688.965,16.602,49.805,0
1539631688.052,36.621,-970.703,-800.781,16.602,12.695,0
1539631688.056,35.645,-971.191,-818.848,12.207,-15.137,0
1539631688.060,33.203,-971.191,-671.875,6.836,41.016,0
1539631688.064,32.227,-971.191,-685.059,8.301,45.898,0
1539631688.068,35.156,-971.191,-763.184,9.766,37.109,0
1539631688.072,34.668,-970.703,-816.895,9.277,51.270,0
1539631688.075,39.062,-970.703,-805.664,12.695,30.273,0
1539631688.079,42.480,-970.703,-780.762,15.625,-4.395,0
1539631688.083,43.457,-971.191,-924.805,16.602,47.363,0
1539631688.087,45.410,-971.191,-945.801,14.648,38.086,0
1539631688.091,41.992,-971.191,-833.984,16.113,-27.832,0
1539631688.095,37.598,-971.191,-846.191,22.949,-18.555,0
1539631688.099,33.691,-970.703,-825.195,23.926,43.457,0
1539631688.103,29.785,-970.703,-680.176,18.555,47.852,0
1539631688.107,25.879,-971.191,-694.336,13.672,56.152,0
1539631688.111,20.996,-971.191,-839.355,9.766,19.043,0
1539631688.114,20.020,-970.703,-802.734,7.812,9.277,0
1539631688.118,24.902,-971.191,-803.223,13.184,39.062,0
1539631688.122,25.879,-971.191,-837.891,12.695,-7.324,0
1539631688.126,29.297,-971.191,-853.027,10.254,47.363,0
1539631688.130,36.133,-971.191,-928.223,11.719,93.262,0
1539631688.134,38.086,-971.191,-752.930,11.230,42.480,0
1539631688.138,40.527,-971.191,-681.152,10.254,20.996,0
1539631688.142,41.504,-971.191,-791.992,7.324,6.348,0
1539631688.146,41.992,-971.191,-815.430,8.301,63.965,0
1539631688.150,40.039,-971.191,-740.234,9.277,98.145,0
1539631688.154,37.598,-970.703,-687.500,7.324,60.059,1
1539631688.157,39.062,-971.191,-722.168,6.836,67.871,0
1539631688.161,41.016,-971.191,-726.562,8.301,41.992,0
1539631688.165,42.969,-971.191,-806.641,11.230,22.949,0
1539631688.169,43.457,-971.191,-910.156,14.160,31.250,0
1539631688.173,37.109,-971.191,-982.910,12.207,-3.906,0
1539631688.177,30.762,-971.191,-882.812,12.207,30.273,0
1539631688.181,29.297,-971.191,-702.637,19.531,16.113,0
1539631688.185,28.320,-971.191,-780.762,20.508,-12.695,0
1539631688.189,33.691,-971.191,-771.973,20.020,73.730,0
1539631688.193,34.668,-970.703,-673.828,17.578,50.293,0
1539631688.197,35.156,-970.703,-648.926,15.137,40.527,0
1539631688.200,30.762,-970.703,-675.781,14.648,93.750,0
1539631688.204,26.855,-970.703,-867.188,14.648,3.418,0
1539631688.208,27.344,-970.703,-869.629,11.719,-15.137,0
1539631688.212,21.973,-970.703,-824.219,10.254,21.973,0
1539631688.216,22.949,-971.191,-931.641,13.672,37.109,0
1539631688.220,25.879,-971.191,-959.473,9.277,74.219,0
1539631688.224,23.926,-971.191,-767.090,3.906,75.684,0
1539631688.228,22.461,-971.191,-638.672,6.836,53.711,0
1539631688.232,22.949,-971.191,-738.770,6.348,41.504,0
1539631688.236,20.996,-971.191,-733.887,4.395,49.805,0
1539631688.239,21.973,-971.191,-604.492,3.906,84.473,0
1539631688.243,23.438,-971.191,-632.324,2.930,74.219,0
1539631688.247,22.461,-971.191,-739.746,8.301,44.434,0
1539631688.251,20.996,-970.703,-679.688,6.836,62.500,0
1539631688.255,19.531,-971.191,-633.301,2.441,39.062,0
1539631688.259,20.508,-971.191,-786.133,3.906,27.344,0
1539631688.263,19.531,-971.191,-975.098,4.883,-0.488,0
1539631688.267,19.043,-970.703,-878.418,9.766,5.859,0
1539631688.271,19.531,-971.191,-643.066,15.625,41.992,0
1539631688.275,21.484,-971.191,-674.316,17.578,65.430,0
1539631688.279,27.832,-971.191,-756.348,17.090,84.961,0
1539631688.282,31.250,-971.191,-672.852,20.020,61.523,0
1539631688.286,29.785,-971.191,-631.836,21.484,41.016,0
1539631688.290,29.297,-970.703,-756.348,19.531,15.625,0
1539631688.294,31.250,-971.191,-804.199,21.973,26.855,0
1539631688.298,27.832,-971.191,-654.785,20.020,95.703,0
1539631688.302,26.855,-971.191,-610.840,14.648,95.703,0
1539631688.306,23.926,-971.191,-827.148,13.184,71.289,0
1539631688.310,24.902,-971.191,-958.984,11.230,48.340,0
1539631688.314,33.203,-971.191,-736.328,13.672,41.016,0
1539631688.318,34.180,-971.191,-714.355,13.672,41.016,0
1539631688.322,37.109,-970.703,-931.152,13.184,2.930,0
1539631688.325,41.992,-970.703,-877.441,14.160,8.301,0
1539631688.329,43.945,-971.191,-717.285,13.184,5.371,0
1539631688.333,44.434,-971.191,-738.281,13.672,-28.320,0
1539631688.337,42.969,-971.191,-837.891,12.207,-45.898,0
1539631688.341,42.480,-970.703,-809.570,10.742,-18.066,0
1539631688.345,40.527,-971.191,-729.980,11.230,-6.348,0
1539631688.349,42.480,-970.703,-724.121,10.254,19.531,0
1539631688.353,42.969,-970.703,-798.828,10.742,68.848,0
1539631688.357,40.527,-970.703,-864.258,10.254,83.984,0
1539631688.361,39.551,-971.191,-815.430,9.277,57.129,0
1539631688.364,39.062,-971.191,-736.816,13.184,85.449,0
1539631688.368,38.086,-970.703,-917.969,10.742,61.035,0
1539631688.372,35.156,-970.703,-906.250,7.324,5.859,0
1539631688.376,33.691,-971.191,-691.895,8.789,48.340,0
1539631688.380,35.156,-971.191,-840.332,12.695,0.000,0
1539631688.384,34.180,-971.191,-922.363,13.184,-44.434,0
1539631688.388,30.762,-971.191,-714.844,11.719,45.898,0
1539631688.392,27.344,-971.191,-635.254,7.812,81.543,0
1539631688.396,27.344,-971.191,-755.859,2.930,44.922,0
1539631688.400,32.227,-970.703,-940.430,5.371,-16.602,0
1539631688.404,31.250,-971.191,-916.504,9.766,29.297,0
1539631688.407,27.832,-971.191,-709.961,8.789,93.750,0
1539631688.411,28.320,-971.191,-787.598,4.883,84.473,0
1539631688.415,33.203,-970.703,-944.336,5.859,23.926,0
1539631688.419,34.668,-970.703,-688.965,11.230,71.289,0
1539631688.423,35.156,-970.703,-612.793,11.719,66.895,0
1539631688.427,37.598,-970.703,-797.852,10.742,-3.906,0
1539631688.431,40.039,-971.191,-783.203,11.719,3.418,0
1539631688.435,41.504,-971.191,-760.254,15.625,-18.555,0
1539631688.439,43.457,-971.191,-889.648,20.996,-34.180,0
1539631688.443,43.457,-971.191,-874.023,20.996,-3.418,0
1539631688.447,38.086,-971.191,-816.895,19.531,52.734,0
1539631688.450,35.156,-971.191,-817.871,19.043,71.289,0
1539631688.454,34.180,-971.191,-855.469,15.625,37.598,0
1539631688.458,30.273,-971.191,-960.938,8.789,27.344,0
1539631688.462,27.344,-971.191,-862.305,2.441,46.387,0
1539631688.466,26.855,-971.191,-687.988,1.953,0.977,0
1539631688.470,23.438,-971.191,-759.766,2.441,1.465,0
1539631688.474,21.973,-971.191,-823.242,1.465,20.996,0
1539631688.478,25.879,-971.191,-703.125,2.441,20.996,0
1539631688.482,30.273,-971.191,-653.809,7.812,23.926,0
1539631688.486,29.297,-971.191,-746.582,13.184,22.461,0
1539631688.489,30.273,-971.191,-766.113,18.066,40.527,0
1539631688.493,30.762,-971.191,-840.820,13.672,-3.906,0
1539631688.497,33.203,-970.703,-891.602,8.789,6.348,0
1539631688.501,34.180,-971.191,-891.113,8.789,62.012,0
1539631688.505,32.227,-971.191,-941.895,3.418,10.742,0
1539631688.509,32.227,-971.191,-728.516,2.441,32.227,0
1539631688.513,37.598,-971.191,-601.562,7.324,69.336,0
1539631688.517,36.621,-971.191,-746.582,12.695,5.371,0
1539631688.521,41.992,-971.191,-787.109,19.531,-28.809,0
1539631688.525,44.922,-971.191,-636.719,21.484,17.578,0
1539631688.529,32.227,-971.191,-666.992,15.625,68.848,0
1539631688.532,27.832,-971.191,-809.082,6.348,14.160,0
1539631688.536,31.250,-971.191,-744.141,2.930,-21.973,0
1539631688.540,33.203,-970.703,-716.309,4.883,41.016,0
1539631688.544,33.691,-970.703,-855.469,-0.488,23.438,0
1539631688.548,38.574,-971.191,-966.309,-6.836,14.160,0
1539631688.552,47.852,-971.191,-919.434,-4.395,34.180,0
1539631688.556,53.223,-971.191,-789.062,-1.465,0.977,0
1539631688.560,51.270,-971.191,-812.988,-1.465,-41.016,0
1539631688.564,53.711,-971.191,-795.410,0.000,19.043,0
1539631688.568,58.594,-970.703,-637.207,-2.441,47.363,0
1539631688.572,63.965,-971.191,-590.820,4.395,39.062,0
1539631688.575,68.359,-971.191,-689.453,11.230,46.875,0
1539631688.579,62.500,-971.191,-706.543,7.324,74.707,0
1539631688.583,57.129,-971.191,-626.465,6.348,62.012,0
1539631688.587,60.059,-971.191,-714.844,12.207,61.035,0
1539631688.591,57.129,-970.703,-876.953,12.695,88.867,0
1539631688.595,54.688,-971.191,-953.125,15.137,30.762,0
1539631688.599,54.688,-971.191,-743.652,13.184,40.039,0
1539631688.603,54.688,-971.191,-591.797,9.766,75.195,0
1539631688.607,56.152,-971.191,-707.520,10.254,35.156,0
1539631688.611,47.363,-971.191,-790.039,5.371,45.898,0
1539631688.614,43.457,-971.191,-755.859,6.836,43.457,0
1539631688.618,46.875,-971.191,-675.293,12.207,28.809,0
1539631688.622,44.434,-971.191,-713.379,13.672,22.949,0
1539631688.626,45.410,-971.191,-693.359,18.066,30.273,0
1539631688.630,44.922,-971.191,-598.145,21.484,60.547,0
1539631688.634,45.410,-971.191,-696.289,27.344,55.176,0
1539631688.638,46.875,-970.703,-934.082,29.297,33.691,0
1539631688.642,45.898,-971.191,-844.727,24.902,59.570,0
1539631688.646,43.945,-971.191,-588.867,20.996,63.477,0
1539631688.650,40.527,-971.191,-675.293,22.461,31.738,0
1539631688.654,40.039,-971.191,-775.391,29.785,21.484,0
1539631688.657,41.016,-971.191,-660.156,28.809,44.922,0
1539631688.661,45.898,-971.191,-600.098,25.879,70.312,0
1539631688.665,49.805,-970.703,-720.215,27.344,52.246,0
1539631688.669,45.410,-970.703,-846.680,25.879,36.621,0
1539631688.673,41.504,-970.703,-733.887,22.949,54.199,0
1539631688.677,38.086,-970.703,-653.320,19.043,59.570,0
1539631688.681,36.621,-970.703,-848.145,17.578,27.344,0
1539631688.685,43.457,-971.191,-959.473,15.625,37.109,0
1539631688.689,40.527,-971.191,-803.223,12.207,13.672,0
1539631688.693,31.250,-971.191,-683.105,9.277,4.395,0
1539631688.697,33.203,-971.191,-716.797,9.766,56.641,0
1539631688.700,30.762,-970.703,-725.098,13.184,48.340,0
1539631688.704,30.273,-970.703,-653.320,12.695,13.184,0
1539631688.708,33.691,-971.191,-680.664,10.742,-4.395,0
1539631688.712,35.156,-971.191,-704.102,12.695,51.758,0
1539631688.716,36.621,-971.191,-687.012,11.719,49.316,0
1539631688.720,36.133,-971.191,-622.559,11.719,44.922,0
1539631688.724,34.180,-971.191,-605.957,10.742,100.098,0
1539631688.728,35.645,-971.191,-807.129,15.137,47.363,0
1539631688.732,29.785,-971.191,-918.945,14.648,5.371,0
1539631688.736,24.414,-970.703,-822.266,12.695,70.312,0
1539631688.739,27.832,-970.703,-837.402,18.555,67.871,0
1539631688.743,30.273,-971.191,-968.262,13.184,54.199,0
1539631688.747,30.273,-971.191,-892.090,9.766,33.691,0
1539631688.751,31.250,-970.703,-679.688,19.043,1.953,0
1539631688.755,34.668,-970.703,-741.699,19.043,14.648,0
1539631688.759,38.086,-970.703,-806.641,16.602,22.461,0
1539631688.763,41.992,-971.191,-659.668,21.484,43.457,0
1539631688.767,41.992,-971.191,-642.090,25.879,0.977,0
1539631688.771,41.504,-971.191,-710.938,25.879,4.883,0
1539631688.775,42.480,-971.191,-794.434,24.902,43.945,0
1539631688.779,41.016,-971.191,-838.867,25.879,16.113,0
1539631688.782,39.551,-971.191,-738.770,24.902,27.344,0
1539631688.786,38.086,-971.191,-818.848,24.902,16.602,0
1539631688.790,31.738,-971.191,-929.199,25.391,-13.672,0
1539631688.794,26.855,-971.191,-723.145,23.438,-29.785,0
1539631688.798,23.438,-970.703,-622.070,24.902,-25.879,0
1539631688.802,22.949,-970.703,-684.570,26.367,0.488,0
1539631688.806,17.578,-971.191,-659.668,22.949,18.555,0
1539631688.810,18.555,-971.191,-550.781,26.367,41.016,0
1539631688.814,23.438,-971.191,-565.918,27.344,52.246,0
1539631688.818,13.184,-971.191,-655.762,18.066,47.363,0
1539631688.822,11.230,-971.191,-775.879,3.906,9.277,0
1539631688.825,15.625,-971.191,-837.402,-2.930,6.348,0
1539631688.829,8.789,-971.191,-787.109,-6.836,53.223,0
1539631688.833,4.883,-970.703,-908.691,-17.578,65.918,0
1539631688.837,5.371,-971.191,-832.031,-20.996,56.152,0
1539631688.841,6.348,-971.191,-645.020,-21.484,53.711,0
1539631688.845,5.371,-971.191,-808.105,-25.879,49.805,0
1539631688.849,6.348,-971.191,-852.539,-27.344,-10.742,0
1539631688.853,10.254,-971.191,-635.742,-21.484,16.113,0
1539631688.857,9.277,-971.191,-561.035,-15.137,39.551,0
1539631688.861,11.230,-971.191,-646.973,-14.160,46.875,0
1539631688.864,14.648,-971.191,-654.785,-10.742,62.500,0
1539631688.868,17.578,-971.191,-720.703,-7.324,15.625,0
1539631688.872,16.113,-971.191,-748.047,-9.766,30.273,0
1539631688.876,15.137,-971.191,-820.801,-8.789,51.758,0
1539631688.880,17.578,-971.191,-903.320,-5.371,70.312,0
1539631688.884,18.066,-971.191,-729.004,-3.906,-0.977,0
1539631688.888,15.625,-971.191,-632.812,0.977,-39.551,0
1539631688.892,14.648,-971.191,-670.410,1.953,35.156,0
1539631688.896,19.043,-971.191,-679.199,5.371,25.391,0
1539631688.900,19.531,-971.191,-671.387,5.371,6.348,0
1539631688.904,16.113,-971.191,-703.125,6.348,55.664,0
1539631688.907,17.090,-970.703,-714.844,7.324,45.410,0
1539631688.911,16.602,-971.191,-677.734,6.348,20.996,0
1539631688.915,20.996,-970.703,-765.625,9.277,-4.883,0
1539631688.919,24.414,-971.191,-811.523,12.207,38.086,0
1539631688.923,24.414,-970.703,-898.438,14.648,62.012,0
1539631688.927,26.855,-970.703,-931.641,12.695,21.484,0
1539631688.931,25.391,-971.191,-663.086,10.254,20.996,0
1539631688.935,26.367,-970.703,-621.094,12.695,62.012,0
1539631688.939,23.926,-971.191,-700.684,12.695,64.941,0
1539631688.943,20.020,-971.191,-619.141,8.301,36.133,0
1539631688.947,22.949,-965.332,-531.738,8.301,69.824,0
1539631688.950,21.973,-968.262,-631.836,11.719,76.172,0
1539631688.954,24.414,-972.168,-695.312,7.812,55.664,0
1539631688.958,28.809,-970.703,-673.340,4.883,57.617,0
1539631688.962,26.367,-971.191,-779.785,7.324,46.875,0
1539631688.966,23.438,-971.191,-893.066,4.395,25.879,0
1539631688.970,20.996,-971.191,-949.219,-0.488,-6.836,0
1539631688.974,17.090,-971.191,-754.883,-2.441,14.160,0
1539631688.978,15.625,-971.191,-624.512,0.977,42.480,0
1539631688.982,16.602,-971.191,-712.402,5.859,45.410,0
1539631688.986,19.043,-971.191,-741.211,5.859,28.809,0
1539631688.989,18.066,-970.703,-666.016,6.348,15.625,0
1539631688.993,18.066,-971.191,-709.961,6.836,-3.906,0
1539631688.997,21.973,-971.191,-815.430,6.348,-14.160,0
1539631689.001,24.902,-971.191,-785.156,7.324,-15.625,0
1539631689.005,23.438,-971.191,-727.539,5.859,-21.484,0
1539631689.009,20.508,-971.191,-778.320,2.441,59.082,0
1539631689.013,23.438,-971.191,-935.059,2.441,84.473,0
1539631689.017,24.902,-971.191,-954.102,4.395,46.875,0
1539631689.021,24.902,-971.191,-724.609,5.371,45.898,0
1539631689.025,25.879,-971.191,-676.270,5.371,73.242,0
1539631689.029,26.367,-971.191,-773.926,6.348,69.824,0
1539631689.032,20.996,-970.703,-696.777,2.930,42.969,0
1539631689.036,17.090,-971.191,-666.504,2.441,13.672,0
1539631689.040,14.160,-971.191,-775.391,7.324,0.000,0
1539631689.044,9.766,-971.191,-769.531,6.348,58.594,0
1539631689.048,11.719,-970.703,-655.762,10.254,75.195,0
1539631689.052,14.648,-971.191,-638.672,8.789,51.270,0
1539631689.056,12.695,-970.703,-754.395,3.418,72.266,0
1539631689.060,15.137,-970.703,-904.297,7.324,63.477,0
1539631689.064,19.043,-971.191,-839.355,9.277,29.297,0
1539631689.068,21.973,-971.191,-703.125,14.160,-11.230,0
1539631689.072,22.949,-971.191,-804.199,7.812,2.441,0
1539631689.075,17.578,-971.191,-985.840,-1.465,-4.883,0
1539631689.079,13.184,-971.191,-797.363,0.488,16.113,0
1539631689.083,14.160,-971.191,-663.574,1.953,28.809,0
1539631689.087,17.578,-971.191,-758.789,4.883,0.488,0
1539631689.091,22.949,-971.191,-713.867,1.953,42.969,0
1539631689.095,24.902,-970.703,-601.562,-1.465,80.078,0
1539631689.099,25.879,-971.191,-598.633,6.348,84.961,0
1539631689.103,25.391,-971.191,-716.309,6.836,84.961,0
1539631689.107,22.461,-971.191,-830.078,4.883,64.453,0
1539631689.111,21.973,-971.191,-785.156,4.883,50.293,0
1539631689.114,26.367,-971.191,-736.328,8.301,29.297,0
1539631689.118,28.809,-970.703,-916.504,11.719,66.895,0
1539631689.122,29.785,-971.191,-886.719,11.230,42.480,0
1539631689.126,30.762,-971.191,-631.836,13.672,25.391,0
1539631689.130,31.738,-971.191,-710.449,13.672,51.758,0
1539631689.134,34.668,-971.191,-860.840,15.625,1.465,0
1539631689.138,35.645,-970.703,-715.332,15.625,3.906,0
1539631689.142,31.250,-970.703,-610.840,12.695,46.875,0
1539631689.146,30.273,-971.191,-660.156,15.137,92.285,0
1539631689.150,33.203,-971.191,-826.660,18.555,45.410,0
1539631689.154,30.762,-971.191,-856.934,18.066,38.086,0
1539631689.157,25.879,-971.191,-731.934,16.113,73.730,0
1539631689.161,23.926,-971.191,-790.527,15.137,75.684,0
1539631689.165,24.902,-971.191,-933.594,17.090,29.785,0
1539631689.169,26.855,-971.191,-750.977,16.113,2.930,0
1539631689.173,27.832,-971.191,-644.531,17.578,2.930,0
1539631689.177,26.367,-971.191,-760.254,18.066,-18.555,0
1539631689.181,27.344,-971.191,-729.492,21.484,13.184,0
1539631689.185,28.809,-970.703,-609.375,26.367,18.555,0
1539631689.189,30.762,-971.191,-678.223,25.391,0.977,0
1539631689.193,31.250,-971.191,-748.535,17.090,24.902,0
1539631689.197,31.738,-970.703,-821.289,16.113,-18.555,0
1539631689.200,37.109,-971.191,-794.922,24.902,25.391,0
1539631689.204,46.875,-971.191,-663.574,35.156,73.730,0
1539631689.208,55.664,-971.191,-884.766,41.016,28.809,0
1539631689.212,61.035,-971.191,-846.680,41.016,61.523,0
1539631689.216,67.871,-971.191,-517.090,47.363,108.398,0
1539631689.220,71.289,-971.191,-636.719,52.246,65.918,0
1539631689.224,67.871,-971.191,-754.883,49.316,55.176,0
1539631689.228,67.383,-970.703,-657.715,48.340,60.547,0
1539631689.232,66.895,-971.191,-629.883,49.316,49.805,0
1539631689.236,65.430,-971.191,-724.609,48.828,36.133,0
1539631689.239,66.406,-971.191,-757.324,46.875,36.621,0
1539631689.243,64.453,-971.191,-777.832,45.898,47.852,0
1539631689.247,56.641,-970.703,-875.977,42.480,32.715,0
1539631689.251,52.246,-970.703,-937.500,39.062,1.953,0
1539631689.255,49.316,-971.191,-923.828,34.668,30.762,0
1539631689.259,46.875,-970.703,-762.695,31.250,38.574,0
1539631689.263,45.898,-970.703,-706.543,29.785,-2.441,0
1539631689.267,41.016,-971.191,-775.391,28.320,20.508,0
1539631689.271,37.598,-971.191,-735.840,28.809,50.293,0
1539631689.275,36.133,-971.191,-657.715,27.344,28.809,0
1539631689.279,36.621,-971.191,-723.145,24.902,-13.184,0
1539631689.282,33.691,-971.191,-806.641,24.902,-22.461,0
1539631689.286,29.297,-971.191,-712.402,21.973,32.227,0
1539631689.290,31.250,-971.191,-684.082,23.438,96.191,0
1539631689.294,33.691,-971.191,-843.262,24.902,45.898,0
1539631689.298,31.738,-971.191,-973.633,22.461,13.672,0
1539631689.302,34.180,-971.191,-877.441,23.926,34.668,0
1539631689.306,30.762,-971.191,-751.465,21.484,26.855,0
1539631689.310,26.367,-971.191,-861.328,23.438,60.059,0
1539631689.314,30.273,-971.191,-844.238,26.367,65.430,0
1539631689.318,30.273,-971.191,-729.492,26.855,10.254,0
1539631689.322,28.320,-970.703,-649.414,25.879,45.898,0
1539631689.325,33.691,-971.191,-724.609,26.855,70.801,0
1539631689.329,37.598,-971.191,-742.676,26.855,87.402,0
1539631689.333,35.156,-971.191,-627.930,23.926,97.168,0
1539631689.337,33.203,-971.191,-758.301,25.879,40.527,0
1539631689.341,32.715,-971.191,-916.992,26.367,31.738,0
1539631689.345,38.086,-971.191,-946.777,23.438,33.203,0
1539631689.349,43.945,-971.191,-766.113,26.367,28.809,0
1539631689.353,41.504,-971.191,-647.461,27.832,9.766,0
1539631689.357,40.039,-971.191,-764.648,25.879,-11.230,0
1539631689.361,42.969,-971.191,-713.379,22.949,55.664,0
1539631689.364,41.016,-971.191,-690.918,18.066,53.711,0
1539631689.368,35.645,-971.191,-750.000,16.113,-4.883,0
1539631689.372,34.180,-970.703,-716.309,15.137,51.758,0
1539631689.376,35.156,-971.191,-689.941,12.207,71.289,0
1539631689.380,35.156,-971.191,-657.227,6.836,30.762,0
1539631689.384,35.645,-971.191,-786.133,11.230,25.879,0
1539631689.388,33.691,-970.703,-959.961,13.184,18.555,0
1539631689.392,32.227,-971.191,-914.551,11.719,-5.859,0
1539631689.396,31.250,-971.191,-734.375,14.160,0.488,0
1539631689.400,29.297,-971.191,-795.410,12.207,-13.672,0
1539631689.404,24.902,-971.191,-887.695,11.230,26.367,0
1539631689.407,13.184,-971.191,-732.422,8.789,59.570,0
1539631689.411,7.812,-971.191,-667.480,2.441,14.648,0
1539631689.415,11.719,-971.191,-729.004,4.395,33.691,0
1539631689.419,12.207,-971.191,-761.230,7.324,37.109,0
1539631689.423,13.672,-971.191,-745.117,1.953,41.504,0
1539631689.427,18.066,-971.191,-717.285,3.418,26.367,0
1539631689.431,20.020,-970.703,-859.375,11.230,19.531,0
1539631689.435,20.020,-971.191,-939.941,10.254,51.270,0
1539631689.439,19.043,-970.215,-684.570,5.859,86.426,0
1539631689.443,22.461,-966.309,-562.012,10.254,110.352,0
1539631689.447,27.344,-969.727,-745.605,15.625,22.949,0
1539631689.450,25.879,-971.680,-805.664,13.672,-11.719,0
1539631689.454,26.855,-970.703,-686.523,14.648,10.254,0
1539631689.458,32.227,-970.703,-699.219,18.066,9.277,0
1539631689.462,30.273,-971.191,-798.340,20.020,-4.883,0
1539631689.466,25.391,-971.191,-783.691,20.508,-5.371,0
1539631689.470,26.855,-971.191,-697.266,25.879,1.953,0
1539631689.474,28.809,-971.191,-638.672,27.344,79.102,0
1539631689.478,31.250,-971.191,-764.648,23.926,109.863,0
1539631689.482,34.180,-971.191,-885.742,23.926,71.777,0
1539631689.486,36.621,-971.191,-851.562,20.508,45.898,0
1539631689.489,35.645,-970.703,-769.531,17.578,63.965,0
1539631689.493,35.156,-971.191,-902.832,16.602,99.609,0
1539631689.497,34.668,-971.680,-923.340,16.602,41.016,0
1539631689.501,27.832,-962.891,-620.117,19.531,74.219,2
1539631689.505,23.926,-965.820,-712.402,19.043,48.828,0
1539631689.509,28.809,-972.656,-842.285,19.531,1.953,0
1539631689.513,34.180,-970.215,-660.645,23.926,64.941,0
1539631689.517,32.715,-971.191,-647.949,26.367,20.508,0
1539631689.521,30.762,-971.191,-768.555,31.738,-17.090,0
1539631689.525,33.203,-970.703,-823.730,34.180,58.594,0
1539631689.529,36.133,-970.703,-845.703,27.344,61.035,0
1539631689.532,34.180,-970.703,-807.129,18.555,-2.930,0
1539631689.536,30.273,-971.191,-813.965,21.484,77.637,0
1539631689.540,28.809,-971.191,-936.035,25.391,98.145,0
1539631689.544,26.855,-971.191,-764.648,18.555,30.273,0
1539631689.548,22.461,-971.191,-609.375,16.602,53.223,0
1539631689.552,21.484,-970.703,-665.039,16.602,78.125,0
1539631689.556,24.414,-971.191,-706.543,16.113,41.016,0
1539631689.560,22.949,-971.191,-651.367,13.672,22.461,0
1539631689.564,21.973,-971.191,-674.805,17.578,27.344,0
1539631689.568,21.973,-971.191,-713.867,22.949,70.801,0
1539631689.572,28.320,-970.703,-787.598,27.344,55.176,0
1539631689.575,29.785,-970.703,-836.914,26.855,44.922,0
1539631689.579,26.367,-971.191,-826.660,21.973,34.180,0
1539631689.583,25.879,-971.191,-938.965,17.090,0.977,0
1539631689.587,23.438,-971.191,-862.793,10.254,15.137,0
1539631689.591,20.508,-970.703,-623.047,11.230,28.809,0
1539631689.595,26.855,-971.191,-662.109,16.113,76.660,0
1539631689.599,30.762,-971.191,-730.469,17.578,76.172,0
1539631689.603,29.785,-970.703,-603.516,19.531,44.434,0
1539631689.607,28.809,-970.703,-583.008,19.531,12.695,0
1539631689.611,25.391,-971.191,-700.195,14.648,5.371,0
1539631689.614,24.902,-971.191,-696.289,11.719,49.805,0
1539631689.618,26.367,-971.191,-784.180,14.160,8.789,0
1539631689.622,22.949,-970.703,-796.875,17.578,-9.277,0
1539631689.626,21.973,-971.191,-793.945,17.578,55.664,0
1539631689.630,22.949,-969.727,-920.898,14.160,73.730,0
1539631689.634,24.414,-975.586,-683.594,9.766,57.617,0
1539631689.638,25.879,-953.125,-481.934,14.648,98.145,0
1539631689.642,22.461,-947.754,-558.105,13.672,115.723,0
1539631689.646,14.160,-974.121,-654.785,8.301,40.527,0
1539631689.650,11.230,-970.703,-547.852,7.324,48.828,0
1539631689.654,13.184,-970.703,-656.250,7.324,25.879,0
1539631689.657,11.230,-971.191,-841.797,7.812,-48.828,0
1539631689.661,12.695,-971.191,-689.941,7.324,16.602,0
1539631689.665,16.113,-971.191,-704.102,10.742,24.902,0
1539631689.669,17.090,-971.191,-810.547,13.672,-1.465,0
1539631689.673,24.414,-971.191,-917.969,12.695,64.941,0
1539631689.677,22.461,-971.191,-841.797,13.672,82.031,0
1539631689.681,18.555,-971.191,-554.199,18.066,57.129,0
1539631689.685,20.020,-971.191,-642.090,13.184,-5.371,0
1539631689.689,16.113,-971.191,-731.934,2.441,-17.090,0
1539631689.693,13.672,-971.191,-572.754,2.441,26.855,0
1539631689.697,14.648,-970.703,-509.766,6.348,9.766,0
1539631689.700,21.973,-971.680,-604.004,14.648,8.789,0
1539631689.704,23.926,-968.750,-631.348,10.742,65.430,0
1539631689.708,20.508,-966.797,-501.465,0.488,101.562,0
1539631689.712,25.879,-971.191,-649.414,4.395,24.414,0
1539631689.716,31.738,-971.191,-869.141,13.672,31.250,0
1539631689.720,32.227,-970.703,-904.297,9.277,54.688,0
1539631689.724,27.832,-970.703,-654.785,5.859,53.223,0
1539631689.728,30.273,-971.191,-525.391,5.859,42.480,0
1539631689.732,31.250,-971.191,-593.750,7.324,68.359,0
1539631689.736,25.391,-971.191,-610.840,9.766,59.570,0
1539631689.739,25.879,-971.191,-580.078,6.836,12.207,0
1539631689.743,24.414,-971.191,-617.188,11.230,13.672,0
1539631689.747,22.461,-971.191,-712.891,7.812,31.738,0
1539631689.751,18.555,-971.191,-700.195,4.883,40.039,0
1539631689.755,13.184,-970.703,-658.691,7.324,20.508,0
1539631689.759,15.625,-971.191,-800.293,2.441,20.508,0
1539631689.763,19.531,-971.191,-955.078,3.418,53.223,0
1539631689.767,20.508,-971.191,-902.832,3.418,27.832,0
1539631689.771,21.484,-971.191,-750.977,2.441,36.621,0
1539631689.775,24.414,-970.703,-801.270,8.789,7.324,0
1539631689.779,22.461,-971.680,-815.430,8.301,21.484,0
1539631689.782,17.090,-970.215,-643.555,10.742,81.055,0
1539631689.786,19.043,-964.844,-558.594,11.719,93.750,0
1539631689.790,22.461,-969.727,-712.402,6.348,26.367,0
1539631689.794,19.043,-971.680,-820.312,5.859,14.648,0
1539631689.798,17.578,-970.703,-732.910,6.836,19.043,0
1539631689.802,20.020,-971.191,-639.648,4.883,31.738,0
1539631689.806,20.020,-971.191,-791.992,5.859,60.547,0
1539631689.810,21.973,-971.191,-996.094,4.395,-11.230,0
1539631689.814,21.484,-971.191,-819.336,-0.488,-19.531,0
1539631689.818,18.555,-971.191,-604.492,-0.977,28.809,0
1539631689.822,17.090,-970.703,-748.535,-0.977,25.391,0
1539631689.825,15.625,-971.191,-754.883,-3.906,92.285,0
1539631689.829,21.973,-971.191,-670.410,-0.488,92.285,0
1539631689.833,26.855,-971.191,-767.578,8.301,-19.043,0
1539631689.837,26.855,-971.191,-780.762,15.137,-2.441,0
1539631689.841,27.344,-971.191,-712.891,14.160,77.148,0
1539631689.845,26.367,-971.191,-652.344,14.160,88.867,0
1539631689.849,26.367,-971.191,-739.258,20.996,20.508,0
1539631689.853,25.391,-971.191,-869.629,25.391,19.531,0
1539631689.857,26.855,-970.703,-950.195,23.926,34.668,0
1539631689.861,30.762,-971.191,-928.223,23.926,-17.578,0
1539631689.864,24.902,-971.191,-871.582,19.531,6.348,0
1539631689.868,20.508,-970.703,-912.598,20.996,29.785,0
1539631689.872,15.625,-971.191,-857.422,18.555,14.160,0
1539631689.876,10.254,-971.191,-844.727,11.230,-6.348,0
1539631689.880,9.766,-971.191,-924.805,8.301,14.160,0
1539631689.884,11.719,-971.191,-966.797,5.371,59.082,0
1539631689.888,14.160,-971.191,-987.305,6.836,24.902,0
1539631689.892,10.742,-971.191,-892.090,4.395,10.254,0
1539631689.896,4.395,-971.191,-858.398,-0.488,66.895,0
1539631689.900,3.906,-970.703,-974.609,3.418,41.992,0
1539631689.904,1.953,-970.703,-980.957,0.488,-13.672,0
1539631689.907,1.953,-971.191,-921.387,0.977,5.859,0
1539631689.911,15.625,-971.191,-921.387,10.742,27.344,0
1539631689.915,8.301,-968.262,-940.430,0.488,72.266,0
1539631689.919,-8.301,-975.098,-882.812,-15.625,14.160,0
1539631689.923,-8.301,-954.102,-804.688,-18.555,20.996,0
1539631689.927,-8.301,-946.777,-852.539,-22.949,84.473,0
1539631689.931,-14.648,-974.121,-970.703,-29.297,-9.277,0
1539631689.935,-29.297,-970.703,-926.758,-37.109,-33.203,0
1539631689.939,-35.156,-971.191,-911.133,-42.480,6.348,0
1539631689.943,-35.645,-967.285,-949.707,-41.992,57.129,0
1539631689.947,-36.133,-979.004,-986.816,-41.504,51.270,0
1539631689.950,-38.574,-948.730,-935.547,-44.922,60.059,0
1539631689.954,-32.227,-901.367,-846.191,-38.574,116.699,0
1539631689.958,-25.879,-964.355,-941.895,-35.156,120.605,0
1539631689.962,-23.438,-960.938,-952.148,-35.156,82.031,0
1539631689.966,-18.555,-874.512,-810.059,-26.855,67.383,0
1539631689.970,-18.555,-915.039,-871.094,-20.508,16.113,0
1539631689.974,-20.508,-964.355,-943.359,-15.625,4.883,0
1539631689.978,-21.484,-889.160,-824.219,-16.113,71.289,0
1539631689.982,-19.043,-847.168,-751.465,-16.602,79.102,0
1539631689.986,-10.742,-915.039,-855.957,-12.207,43.945,0
1539631689.989,-10.254,-975.586,-914.062,-14.160,31.738,0
1539631689.993,-10.742,-969.238,-921.875,-14.648,45.898,0
1539631689.997,-9.766,-970.215,-975.098,-8.301,32.715,0
1539631690.001,-9.766,-970.703,-968.262,-7.324,-22.949,0
1539631690.005,-4.883,-972.168,-967.285,-11.230,-26.367,0
1539631690.009,0.000,-966.309,-876.953,-13.184,9.277,0
1539631690.013,4.395,-928.711,-762.207,-8.301,30.762,0
1539631690.017,4.883,-944.336,-845.703,-5.859,25.391,0
1539631690.021,6.348,-961.914,-850.098,-6.348,31.738,0
1539631690.025,6.348,-914.062,-728.027,-4.395,38.574,0
1539631690.029,4.395,-910.645,-728.027,-1.465,38.574,0
1539631690.032,8.301,-950.195,-774.902,4.883,62.988,0
1539631690.036,11.230,-974.121,-804.199,8.301,10.742,0
1539631690.040,11.719,-969.727,-883.789,6.836,-12.207,0
1539631690.044,11.719,-967.773,-959.961,6.836,-3.906,0
1539631690.048,9.277,-975.586,-983.398,10.742,2.441,0
1539631690.052,7.324,-952.637,-870.605,11.230,40.039,0
1539631690.056,6.836,-856.445,-604.004,8.301,98.145,0
1539631690.060,3.906,-899.414,-743.164,9.766,47.852,0
1539631690.064,11.719,-978.516,-901.367,17.578,-2.441,0
1539631690.068,16.602,-976.074,-750.000,17.578,-3.906,0
1539631690.072,7.812,-927.246,-666.504,5.371,7.324,0
1539631690.075,-1.465,-911.133,-669.434,-2.441,99.609,0
1539631690.079,-5.859,-968.262,-713.867,-2.930,100.586,0
1539631690.083,-9.277,-934.570,-645.996,-4.883,66.895,0
1539631690.087,-11.719,-953.613,-752.930,-9.766,32.227,0
1539631690.091,-14.160,-976.074,-918.945,-12.207,41.016,0
1539631690.095,-15.137,-967.285,-926.270,-14.160,44.434,0
1539631690.099,-13.672,-978.027,-754.883,-8.301,17.090,0
1539631690.103,-8.301,-921.387,-594.238,6.348,39.062,0
1539631690.107,-1.465,-923.828,-640.625,4.395,72.754,0
1539631690.111,-1.953,-956.055,-658.203,-1.953,66.895,0
1539631690.114,-0.977,-899.414,-562.500,1.465,61.523,0
1539631690.118,2.930,-933.105,-625.488,10.254,70.801,0
1539631690.122,4.395,-984.375,-715.332,14.160,48.828,0
1539631690.126,6.836,-945.312,-631.836,8.789,62.012,0
1539631690.130,8.789,-937.012,-598.145,8.301,36.133,0
1539631690.134,5.859,-973.633,-753.906,13.672,2.441,0
1539631690.138,5.371,-970.215,-932.617,14.648,6.836,0
1539631690.142,8.301,-970.703,-860.352,12.207,0.488,0
1539631690.146,6.836,-946.289,-613.281,5.371,25.879,0
1539631690.150,7.324,-939.453,-637.695,5.859,38.086,0
1539631690.154,7.812,-979.492,-782.227,4.883,0.000,0
1539631690.157,4.883,-957.520,-664.062,-3.906,36.621,0
1539631690.161,6.348,-907.227,-542.480,-9.277,88.379,0
1539631690.165,11.719,-952.148,-688.477,-7.324,32.227,0
1539631690.169,15.625,-955.566,-707.031,-3.418,74.707,0
1539631690.173,15.625,-940.430,-616.211,-3.906,70.801,0
1539631690.177,13.184,-971.191,-729.980,-6.836,27.344,0
1539631690.181,12.695,-974.121,-899.902,-4.883,38.086,0
1539631690.185,11.719,-959.961,-881.348,-6.348,75.195,0
1539631690.189,6.836,-959.473,-720.703,-11.230,62.500,0
1539631690.193,11.719,-972.656,-697.754,-9.766,5.371,0
1539631690.197,20.508,-970.703,-839.355,-0.488,7.812,0
1539631690.200,17.578,-970.703,-882.324,3.906,9.277,0
1539631690.204,11.230,-969.727,-719.727,2.930,6.348,0
1539631690.208,8.301,-970.703,-688.965,-0.977,18.555,0
1539631690.212,8.301,-971.191,-753.418,-2.930,34.180,0
1539631690.216,5.859,-970.703,-830.566,-2.930,-2.930,0
1539631690.220,0.977,-971.191,-741.699,-4.883,21.973,0
1539631690.224,-2.441,-971.191,-669.922,-6.348,47.852,0
1539631690.228,-6.348,-971.191,-852.539,-6.348,3.906,0
1539631690.232,-1.465,-971.191,-917.969,-2.930,32.227,0
1539631690.236,2.441,-971.191,-860.352,0.000,51.758,0
1539631690.239,5.371,-968.262,-869.629,1.953,-1.953,0
1539631690.243,6.348,-975.098,-940.918,0.000,83.008,0
1539631690.247,6.348,-947.754,-802.734,-1.953,144.043,0
1539631690.251,1.465,-875.977,-528.809,0.977,109.375,0
1539631690.255,-2.930,-904.785,-620.605,0.488,86.914,0
1539631690.259,-1.465,-967.773,-729.004,-2.930,73.242,0
1539631690.263,-0.488,-967.773,-663.086,-5.371,32.227,0
1539631690.267,2.441,-970.215,-648.926,-6.836,1.953,0
1539631690.271,3.906,-970.703,-730.957,-6.348,17.090,0
1539631690.275,1.465,-971.191,-838.867,-3.418,41.992,0
1539631690.279,-4.395,-971.191,-867.676,-4.883,38.574,0
1539631690.282,-3.906,-971.191,-775.391,-4.883,43.945,0
1539631690.286,1.465,-971.191,-796.875,-5.859,54.199,0
1539631690.290,-1.465,-970.703,-985.840,-12.695,42.480,0
1539631690.294,-4.395,-972.168,-871.582,-9.277,28.809,0
1539631690.298,-5.371,-965.820,-647.949,-5.371,50.781,0
1539631690.302,0.488,-968.262,-688.477,-4.883,46.387,0
1539631690.306,5.371,-966.797,-686.035,-1.953,52.246,0
1539631690.310,2.930,-942.383,-565.430,0.488,84.961,0
1539631690.314,5.859,-943.848,-612.793,6.348,48.340,0
1539631690.318,8.301,-967.773,-712.891,11.230,30.762,0
1539631690.322,13.672,-972.168,-771.484,12.207,50.781,0
1539631690.325,14.648,-969.727,-851.562,9.766,13.672,0
1539631690.329,13.184,-970.703,-850.098,7.812,1.465,0
1539631690.333,10.742,-971.191,-927.734,4.883,44.434,0
1539631690.337,5.371,-971.191,-866.211,0.000,46.387,0
1539631690.341,5.859,-960.449,-609.375,5.859,41.016,0
1539631690.345,9.766,-965.820,-695.801,9.766,6.348,0
1539631690.349,15.625,-972.656,-840.820,7.324,15.137,0
1539631690.353,20.020,-970.215,-749.023,10.254,40.039,0
1539631690.357,22.461,-971.191,-640.137,13.184,2.441,0
1539631690.361,24.902,-971.191,-667.480,15.137,25.879,0
1539631690.364,16.113,-971.191,-702.148,11.719,33.691,0
1539631690.368,11.719,-971.191,-727.051,7.324,31.250,0
1539631690.372,5.371,-971.191,-837.891,6.348,-6.348,0
1539631690.376,3.418,-971.191,-947.266,-3.418,-38.574,0
1539631690.380,13.672,-970.215,-924.805,-4.883,0.488,0
1539631690.384,13.672,-974.121,-729.492,2.930,14.160,0
1539631690.388,12.695,-955.078,-593.750,6.836,40.039,0
1539631690.392,15.137,-954.590,-669.922,6.348,47.363,0
1539631690.396,21.484,-972.656,-697.754,6.836,40.039,0
1539631690.400,24.902,-969.238,-618.652,10.742,27.344,0
1539631690.404,21.484,-971.191,-649.414,13.184,16.602,0
1539631690.407,20.996,-970.703,-756.836,14.160,26.367,0
1539631690.411,27.344,-971.191,-729.980,11.719,44.434,0
1539631690.415,26.855,-971.191,-735.840,10.742,72.754,0
1539631690.419,28.320,-971.191,-851.562,12.207,23.438,0
1539631690.423,37.598,-971.191,-871.094,9.277,41.016,0
1539631690.427,35.156,-971.191,-833.496,6.348,55.176,0
1539631690.431,30.762,-970.703,-714.844,9.277,11.230,0
1539631690.435,32.715,-969.727,-647.949,18.555,62.500,0
1539631690.439,41.016,-970.703,-870.605,19.043,71.777,0
1539631690.443,31.250,-971.191,-835.449,2.930,36.621,0
1539631690.447,17.578,-970.703,-587.891,-3.418,45.898,0
1539631690.450,20.020,-971.191,-690.918,3.906,26.367,0
1539631690.454,19.531,-971.191,-734.863,6.348,30.273,0
1539631690.458,8.789,-971.191,-610.840,3.418,41.992,0
1539631690.462,1.953,-971.191,-666.992,1.953,56.152,0
1539631690.466,12.207,-968.750,-863.770,5.371,59.082,0
1539631690.470,19.043,-975.586,-930.176,7.812,73.242,0
1539631690.474,25.879,-950.195,-661.133,1.953,86.426,0
1539631690.478,22.949,-888.672,-463.379,0.488,104.492,0
1539631690.482,11.230,-935.059,-552.246,-5.859,95.215,0
1539631690.486,6.348,-944.336,-535.156,-8.789,106.445,0
1539631690.489,19.531,-924.805,-444.824,1.465,61.523,0
1539631690.493,45.410,-973.145,-519.043,2.441,-21.484,0
1539631690.497,38.574,-971.680,-590.820,1.953,-17.090,0
1539631690.501,26.367,-969.727,-500.977,7.324,38.574,0
1539631690.505,30.762,-960.449,-376.465,2.930,68.359,0
1539631690.509,28.320,-964.355,-474.609,2.930,38.574,0
1539631690.513,25.879,-974.609,-749.023,7.324,47.363,0
1539631690.517,26.367,-967.773,-631.348,8.789,76.172,0
1539631690.521,20.508,-928.223,-213.867,8.301,86.426,0
1539631690.525,20.020,-949.219,-345.703,6.836,14.160,0
1539631690.529,20.996,-978.516,-445.801,7.324,-18.555,0
1539631690.532,18.066,-966.309,-219.727,12.695,26.855,0
1539631690.536,16.113,-942.871,-100.586,16.113,52.246,0
1539631690.540,5.859,-957.520,-216.309,11.230,19.531,0
1539631690.544,-1.953,-975.098,-281.738,9.766,14.160,0
1539631690.548,14.160,-969.238,-189.941,14.648,8.301,0
1539631690.552,9.766,-971.191,-109.375,18.555,19.043,0
1539631690.556,-5.371,-971.191,-291.504,19.043,64.453,0
1539631690.560,3.906,-971.191,-622.070,13.184,-7.812,0
1539631690.564,18.555,-971.191,-442.383,12.207,-67.871,0
1539631690.568,22.949,-971.191,-178.223,15.625,15.625,0
1539631690.572,8.301,-971.191,-252.930,14.160,47.852,0
1539631690.575,-9.277,-971.191,-281.250,15.137,29.297,0
1539631690.579,8.789,-971.191,-219.727,13.672,59.570,0
1539631690.583,20.508,-971.191,-252.930,14.648,89.844,0
1539631690.587,11.719,-971.191,-273.926,15.137,64.941,0
1539631690.591,8.301,-971.191,-318.359,9.766,7.324,0
1539631690.595,7.812,-971.191,-268.066,5.371,29.297,0
1539631690.599,10.254,-971.191,-247.070,6.836,76.172,0
1539631690.603,15.625,-971.191,-369.629,11.230,87.402,0
1539631690.607,0.488,-971.191,-515.625,11.230,42.480,0
1539631690.611,-3.418,-971.191,-403.320,8.789,50.293,0
1539631690.614,6.348,-971.191,-339.844,6.348,58.105,0
1539631690.618,-3.906,-971.191,-737.305,4.395,-9.277,0
1539631690.622,-10.254,-971.191,-695.312,5.371,23.438,0
1539631690.626,-6.836,-971.191,-368.164,11.719,50.781,0
1539631690.630,-13.672,-971.191,-449.707,17.578,72.754,0
1539631690.634,-14.648,-971.191,-519.531,22.949,66.406,0
1539631690.638,-6.836,-971.191,-541.992,21.484,0.000,0
1539631690.642,-5.371,-971.191,-611.328,20.508,27.344,0
1539631690.646,-15.625,-971.191,-648.438,23.926,22.461,0
1539631690.650,-20.508,-971.191,-714.355,27.832,-3.418,0
1539631690.654,-15.137,-971.191,-703.613,27.832,40.527,0
1539631690.657,-13.184,-971.191,-609.863,23.926,40.527,0
1539631690.661,-15.625,-971.191,-738.281,20.508,-6.836,0
1539631690.665,-13.184,-971.191,-932.129,18.066,-27.832,0
1539631690.669,-18.555,-969.727,-643.066,16.602,34.668,0
1539631690.673,-19.531,-970.215,-491.699,18.555,52.246,0
1539631690.677,-20.508,-971.191,-638.184,10.254,27.344,0
1539631690.681,-17.578,-970.703,-621.582,12.207,58.105,0
1539631690.685,-18.555,-971.191,-500.488,21.973,82.031,0
1539631690.689,-20.996,-971.191,-515.137,19.531,80.078,0
1539631690.693,-20.996,-971.191,-664.062,20.996,20.996,0
1539631690.697,-25.879,-971.191,-747.559,16.113,26.367,0
1539631690.700,-24.414,-971.191,-820.801,11.719,-23.438,0
1539631690.704,-33.203,-971.191,-760.254,14.648,-60.547,0
1539631690.708,-41.504,-971.191,-867.188,15.625,-13.184,0
1539631690.712,-32.715,-971.191,-847.656,14.160,0.488,0
1539631690.716,-20.020,-971.191,-478.027,12.695,56.152,0
1539631690.720,-18.555,-971.191,-488.770,16.602,75.684,0
1539631690.724,-29.785,-971.191,-606.445,18.555,40.527,0
1539631690.728,-29.785,-970.703,-496.582,17.578,46.875,0
1539631690.732,-34.180,-970.703,-509.277,14.648,-3.418,0
1539631690.736,-42.969,-971.191,-632.324,14.648,-24.414,0
1539631690.739,-34.180,-971.191,-582.520,22.949,60.059,0
1539631690.743,-31.738,-970.703,-621.582,25.879,54.199,0
1539631690.747,-38.574,-970.703,-670.898,28.809,51.758,0
1539631690.751,-33.691,-971.191,-727.051,29.785,75.684,0
1539631690.755,-23.926,-971.191,-934.570,31.250,8.789,0
1539631690.759,-20.020,-971.191,-738.281,30.273,-14.648,0
1539631690.763,-24.414,-971.191,-540.527,28.809,13.184,0
1539631690.767,-28.320,-971.191,-621.094,30.273,23.438,0
1539631690.771,-35.156,-971.191,-625.488,27.832,34.668,0
1539631690.775,-45.410,-971.191,-545.898,21.973,30.273,0
1539631690.779,-34.180,-971.191,-578.125,26.367,15.137,0
1539631690.782,-25.879,-971.191,-647.949,27.344,26.855,0
1539631690.786,-27.344,-971.191,-646.484,26.367,16.113,0
1539631690.790,-24.902,-971.191,-687.988,26.367,18.066,0
1539631690.794,-22.949,-971.191,-747.559,26.367,44.434,0
1539631690.798,-21.973,-970.703,-921.387,28.320,20.020,0
1539631690.802,-25.391,-971.191,-854.980,23.926,31.250,0
1539631690.806,-17.578,-969.238,-540.527,22.461,71.289,0
1539631690.810,-15.625,-969.238,-591.797,23.438,63.477,0
1539631690.814,-17.578,-971.191,-806.152,23.438,16.113,0
1539631690.818,-15.625,-971.191,-704.590,25.879,18.555,0
1539631690.822,-19.531,-971.191,-572.754,26.855,29.785,0
1539631690.825,-25.879,-971.191,-705.566,26.367,9.766,0
1539631690.829,-33.691,-971.191,-748.047,20.996,36.621,0
1539631690.833,-35.156,-969.238,-608.887,18.555,90.820,0
1539631690.837,-39.062,-969.727,-688.477,22.461,98.633,0
1539631690.841,-36.133,-972.168,-895.508,21.973,57.617,0
1539631690.845,-26.367,-968.750,-908.203,22.461,40.527,0
1539631690.849,-31.738,-967.773,-736.328,24.902,92.773,0
1539631690.853,-32.227,-971.191,-648.926,25.391,59.570,0
1539631690.857,-27.344,-971.191,-675.781,21.484,47.363,1
1539631690.861,-35.645,-970.703,-683.105,16.602,49.805,0
1539631690.864,-31.738,-970.703,-622.070,18.555,11.719,0
1539631690.868,-27.344,-970.215,-603.516,18.555,31.250,0
1539631690.872,-29.785,-971.680,-710.449,19.531,23.926,0
1539631690.876,-28.320,-971.680,-708.008,16.602,31.250,0
1539631690.880,-29.785,-952.148,-569.824,14.648,87.891,0
1539631690.884,-33.691,-961.426,-683.105,24.902,77.637,0
1539631690.888,-38.086,-974.121,-915.527,24.902,60.547,0
1539631690.892,-35.156,-969.727,-910.645,21.973,22.461,0
1539631690.896,-29.297,-971.191,-702.148,23.926,-5.371,0
1539631690.900,-30.762,-971.191,-686.523,26.855,20.020,0
1539631690.904,-36.621,-969.238,-708.008,23.926,69.336,0
1539631690.907,-34.668,-975.098,-650.391,18.066,27.832,0
1539631690.911,-21.484,-959.961,-615.234,20.508,20.508,0
1539631690.915,-18.066,-943.848,-659.668,20.996,82.031,0
1539631690.919,-15.625,-970.215,-786.621,18.066,26.855,0
1539631690.923,-8.301,-972.656,-733.887,16.602,9.277,0
1539631690.927,-12.695,-969.727,-697.266,14.160,72.266,0
1539631690.931,-21.973,-971.191,-838.379,14.648,92.285,0
1539631690.935,-16.113,-971.191,-975.098,14.648,10.254,0
1539631690.939,-7.812,-971.191,-817.383,12.207,7.324,0
1539631690.943,-17.090,-970.703,-671.875,8.301,0.000,0
1539631690.947,-26.367,-968.750,-847.656,3.418,-15.137,0
1539631690.950,-16.113,-977.051,-898.438,4.883,36.621,0
1539631690.954,-13.184,-939.941,-659.180,5.371,87.402,0
1539631690.958,-15.137,-909.668,-620.605,7.324,76.172,0
1539631690.962,-15.137,-959.473,-729.980,14.160,60.547,0
1539631690.966,-23.438,-976.074,-765.625,15.137,36.621,0
1539631690.970,-24.902,-965.332,-711.914,10.742,27.344,0
1539631690.974,-20.020,-966.309,-699.707,9.766,62.988,0
1539631690.978,-24.902,-971.680,-874.023,7.812,43.945,0
1539631690.982,-27.832,-971.191,-976.074,10.742,21.484,0
1539631690.986,-21.973,-970.703,-953.613,16.602,13.184,0
1539631690.989,-28.320,-971.191,-893.066,16.602,40.039,0
1539631690.993,-31.738,-968.750,-939.941,13.672,44.434,0
1539631690.997,-18.555,-977.051,-934.082,14.160,1.465,0
1539631691.001,-19.531,-948.242,-695.312,19.043,17.090,0
1539631691.005,-23.926,-929.199,-661.621,22.461,99.609,0
1539631691.009,-22.461,-971.680,-775.391,19.043,53.223,0
1539631691.013,-28.320,-974.609,-688.477,14.648,18.555,0
1539631691.017,-20.996,-926.758,-557.129,17.578,73.730,0
1539631691.021,-20.020,-937.988,-663.574,21.484,38.086,0
1539631691.025,-18.555,-976.562,-861.328,14.648,-2.441,0
1539631691.029,-11.230,-969.238,-853.516,15.625,47.363,0
1539631691.032,-12.695,-970.703,-759.277,20.996,46.875,0
1539631691.036,-18.066,-971.191,-846.680,15.137,-11.230,0
1539631691.040,-21.973,-970.703,-933.594,14.160,0.488,0
1539631691.044,-13.184,-971.191,-843.750,18.066,-1.465,0
1539631691.048,-18.066,-969.727,-791.504,18.066,11.230,0
1539631691.052,-22.949,-968.750,-750.977,14.160,48.340,0
1539631691.056,-9.766,-971.191,-729.980,14.160,21.973,0
1539631691.060,-6.836,-969.727,-709.473,14.648,23.438,0
1539631691.064,-7.324,-976.074,-765.625,14.160,-7.812,0
1539631691.068,-9.766,-948.242,-688.477,17.090,67.871,0
1539631691.072,-10.742,-944.336,-675.293,19.043,129.395,0
1539631691.075,-10.254,-976.074,-806.152,17.090,34.180,0
1539631691.079,-4.395,-966.309,-817.871,18.555,14.160,0
1539631691.083,-10.254,-977.051,-942.383,20.508,-20.996,0
1539631691.087,-15.625,-956.543,-878.906,15.625,-3.418,0
1539631691.091,-5.859,-880.859,-570.801,14.160,84.961,0
1539631691.095,1.953,-925.781,-695.312,17.578,20.508,0
1539631691.099,-0.488,-979.004,-839.844,20.508,-20.508,0
1539631691.103,-5.371,-967.773,-774.414,21.484,17.090,0
1539631691.107,-6.348,-970.703,-751.465,15.625,4.395,0
1539631691.111,-5.859,-971.191,-766.113,13.184,14.160,0
1539631691.114,-9.766,-971.191,-784.180,16.113,29.785,0
1539631691.118,-16.113,-971.191,-793.457,15.137,53.711,0
1539631691.122,-13.672,-971.191,-798.340,9.766,69.336,0
1539631691.126,-3.418,-970.703,-845.703,10.742,50.293,0
1539631691.130,-7.812,-969.727,-918.945,15.625,40.039,0
1539631691.134,-13.672,-969.727,-748.047,18.066,22.461,0
1539631691.138,0.000,-958.008,-653.320,15.137,6.836,0
1539631691.142,2.930,-962.402,-754.395,10.254,17.090,0
1539631691.146,-1.953,-971.680,-766.113,13.184,39.551,0
1539631691.150,-12.695,-956.543,-667.480,12.207,47.852,0
1539631691.154,-12.695,-936.523,-669.922,6.836,35.645,0
1539631691.157,-5.859,-955.078,-734.375,8.789,75.195,0
1539631691.161,-7.324,-975.098,-785.645,11.230,86.914,0
1539631691.165,-8.301,-969.238,-823.242,12.695,43.945,0
1539631691.169,-11.230,-971.191,-858.398,13.184,36.133,0
1539631691.173,-9.277,-971.191,-943.848,8.301,61.523,0
1539631691.177,-11.719,-971.680,-907.227,0.000,48.828,0
1539631691.181,-18.066,-968.262,-725.586,-1.953,-2.441,0
1539631691.185,-13.672,-974.121,-735.840,4.395,15.625,0
1539631691.189,-11.719,-957.031,-750.977,3.418,85.449,0
1539631691.193,-18.555,-908.691,-626.953,0.488,89.355,0
1539631691.197,-17.090,-902.832,-598.633,1.465,55.176,0
1539631691.200,-9.766,-941.895,-688.477,6.836,62.500,0
1539631691.204,-3.418,-937.988,-675.781,12.207,102.051,0
1539631691.208,-2.441,-915.527,-614.258,12.695,68.359,0
1539631691.212,3.906,-966.797,-771.973,19.043,6.348,0
1539631691.216,3.906,-973.145,-915.039,20.020,22.461,0
1539631691.220,-1.953,-967.773,-958.984,15.137,-1.465,0
1539631691.224,0.977,-977.051,-824.707,16.602,-35.156,0
1539631691.228,-0.488,-937.500,-628.906,13.184,26.367,0
1539631691.232,3.906,-942.871,-696.777,11.230,36.133,0
1539631691.236,7.324,-970.703,-719.727,11.719,36.621,0
1539631691.239,5.371,-923.828,-593.750,14.648,61.523,0
1539631691.243,11.230,-895.996,-590.820,20.996,61.523,0
1539631691.247,9.277,-938.477,-681.641,20.996,57.617,0
1539631691.251,5.859,-979.004,-715.820,17.090,20.996,0
1539631691.255,4.883,-949.219,-612.793,9.766,52.734,0
1539631691.259,-7.324,-954.102,-676.270,10.742,88.379,0
1539631691.263,-4.395,-974.609,-919.434,11.230,68.359,0
1539631691.267,-2.441,-970.215,-900.391,5.371,17.578,0
1539631691.271,-12.207,-971.191,-690.430,6.836,32.715,0
1539631691.275,0.977,-970.215,-719.238,11.230,52.734,0
1539631691.279,10.254,-971.191,-815.430,10.254,11.230,0
1539631691.282,1.465,-971.680,-706.055,11.719,3.906,0
1539631691.286,-2.930,-959.961,-615.723,14.648,-3.418,0
1539631691.290,1.465,-962.402,-716.309,19.531,-8.789,0
1539631691.294,10.254,-977.051,-760.742,27.344,16.602,0
1539631691.298,5.859,-961.426,-639.160,22.949,44.922,0
1539631691.302,0.488,-933.594,-568.848,16.602,45.410,0
1539631691.306,19.043,-962.891,-782.227,23.926,28.809,0
1539631691.310,33.203,-974.609,-960.938,26.855,57.129,0
1539631691.314,40.527,-968.750,-785.645,29.297,31.738,0
1539631691.318,42.969,-971.191,-646.973,35.645,20.508,0
1539631691.322,41.016,-971.191,-759.766,34.668,14.160,0
1539631691.325,32.715,-971.191,-795.410,33.691,20.508,0
1539631691.329,23.926,-971.191,-630.371,31.250,66.406,0
1539631691.333,30.762,-970.703,-668.945,29.297,73.242,0
1539631691.337,30.762,-969.238,-791.504,26.367,43.945,0
1539631691.341,23.438,-976.074,-716.797,25.879,32.715,0
1539631691.345,19.043,-947.266,-594.727,27.832,79.102,0
1539631691.349,21.973,-937.988,-585.449,30.762,88.867,0
1539631691.353,33.203,-969.238,-768.555,35.156,34.668,0
1539631691.357,28.809,-977.051,-915.039,32.715,4.395,0
1539631691.361,22.949,-956.543,-768.066,28.320,69.336,0
1539631691.364,19.531,-937.988,-636.719,24.414,90.820,0
1539631691.368,18.555,-969.727,-898.926,20.996,27.832,0
1539631691.372,16.113,-972.656,-897.949,13.184,23.438,0
1539631691.376,12.695,-969.238,-647.949,9.277,21.973,0
1539631691.380,16.113,-970.703,-729.980,15.137,17.090,0
1539631691.384,19.531,-972.168,-852.539,20.508,-22.949,0
1539631691.388,15.625,-969.238,-693.848,20.508,18.066,0
1539631691.392,16.113,-962.891,-658.691,21.484,79.102,0
1539631691.396,15.137,-970.215,-811.035,24.902,52.246,0
1539631691.400,17.090,-971.680,-948.242,27.344,-5.371,0
1539631691.404,24.414,-970.703,-974.609,26.855,-2.441,0
1539631691.407,22.461,-971.191,-928.711,22.949,-44.922,0
1539631691.411,17.090,-971.191,-912.109,21.973,-22.949,0
1539631691.415,20.996,-971.191,-952.148,25.391,-7.324,0
1539631691.419,17.090,-971.191,-806.152,25.391,-51.270,0
1539631691.423,13.672,-970.703,-666.016,24.902,-16.602,0
1539631691.427,22.461,-970.215,-771.973,21.973,3.418,0
1539631691.431,20.020,-971.191,-797.852,13.184,8.789,0
1539631691.435,15.137,-972.168,-688.965,9.766,13.184,0
1539631691.439,11.230,-956.055,-636.230,10.742,54.199,0
1539631691.443,7.812,-961.914,-718.262,10.742,44.434,0
1539631691.447,9.766,-973.633,-833.008,8.301,21.484,0
1539631691.450,8.789,-970.215,-870.117,8.789,10.254,0
1539631691.454,8.789,-970.215,-837.402,15.137,55.664,0
1539631691.458,7.324,-967.773,-921.387,18.555,72.754,0
1539631691.462,11.230,-981.445,-883.301,20.020,23.926,0
1539631691.466,13.672,-902.832,-604.492,23.438,67.383,0
1539631691.470,9.766,-883.789,-590.332,22.949,108.398,0
1539631691.474,10.254,-952.637,-677.246,21.973,107.910,0
1539631691.478,17.578,-873.047,-572.266,21.484,98.633,0
1539631691.482,20.508,-888.184,-575.195,26.367,101.562,0
1539631691.486,19.531,-962.891,-695.801,29.297,95.703,0
1539631691.489,22.949,-968.750,-745.605,25.879,35.156,0
1539631691.493,22.461,-970.703,-822.754,25.391,-15.137,0
1539631691.497,18.555,-970.703,-826.660,22.949,14.648,0
1539631691.501,24.902,-970.703,-824.219,25.391,64.941,0
1539631691.505,31.738,-970.215,-939.453,28.809,23.926,0
1539631691.509,23.438,-975.586,-805.664,20.020,25.879,0
1539631691.513,6.836,-940.430,-640.137,10.254,55.664,0
1539631691.517,6.836,-945.801,-717.773,7.812,8.789,0
1539631691.521,6.836,-953.613,-729.492,2.930,14.160,0
1539631691.525,-8.301,-891.113,-601.074,-11.230,51.270,0
1539631691.529,-19.531,-876.465,-598.145,-23.438,58.594,0
1539631691.532,-21.973,-941.895,-675.781,-24.414,51.270,0
1539631691.536,-27.832,-933.594,-644.043,-26.855,62.988,0
1539631691.540,-35.156,-943.359,-737.305,-28.320,35.156,0
1539631691.544,-34.668,-977.539,-781.738,-27.344,71.777,0
1539631691.548,-24.414,-965.820,-842.773,-26.367,106.934,0
1539631691.552,-15.137,-974.609,-914.062,-20.020,-5.859,0
1539631691.556,-15.625,-958.008,-703.613,-18.555,-47.852,0
1539631691.560,-13.184,-954.102,-728.027,-18.066,-35.156,0
1539631691.564,-5.371,-957.520,-781.738,-13.184,5.371,0
1539631691.568,-3.418,-970.215,-704.590,-7.812,36.621,0
1539631691.572,-4.883,-898.926,-602.539,-1.465,49.316,0
1539631691.575,-5.371,-887.695,-614.746,1.465,67.871,0
1539631691.579,-3.906,-956.543,-688.965,4.883,59.570,0
1539631691.583,1.953,-853.516,-567.383,3.906,82.520,0
1539631691.587,8.301,-900.391,-603.516,9.277,93.262,0
1539631691.591,6.836,-979.492,-825.684,13.184,97.656,0
1539631691.595,7.812,-976.074,-952.148,3.906,47.363,0
1539631691.599,4.883,-919.434,-727.539,-1.465,33.691,0
1539631691.603,0.488,-819.336,-522.461,-1.953,82.031,0
1539631691.607,3.906,-892.578,-664.551,-1.953,41.504,0
1539631691.611,2.441,-959.473,-735.840,-0.488,11.230,0
1539631691.614,0.488,-890.625,-611.328,1.465,41.016,0
1539631691.618,4.883,-851.074,-569.336,4.883,55.664,0
1539631691.622,2.930,-934.570,-657.227,4.883,48.340,0
1539631691.626,5.371,-981.445,-800.293,4.395,14.160,0
1539631691.630,7.324,-962.891,-738.770,4.395,2.930,0
1539631691.634,0.000,-968.750,-736.328,2.930,3.906,0
1539631691.638,-1.465,-969.238,-929.199,3.906,23.438,0
1539631691.642,-2.930,-977.051,-889.648,-2.930,20.020,0
1539631691.646,-0.977,-942.871,-662.598,-7.324,-8.789,0
1539631691.650,-1.465,-922.363,-653.320,-1.465,19.531,0
1539631691.654,-4.395,-963.867,-739.746,-0.488,32.227,0
1539631691.657,-4.395,-957.520,-667.969,-5.371,20.996,0
1539631691.661,-4.395,-913.086,-617.188,-3.906,12.207,0
1539631691.665,-4.883,-921.387,-644.043,1.953,69.824,0
1539631691.669,-6.348,-970.703,-684.570,-1.465,80.078,0
1539631691.673,-3.418,-884.766,-603.027,-5.371,76.660,0
1539631691.677,-1.465,-869.629,-572.754,-2.441,82.031,0
1539631691.681,-3.906,-958.008,-787.598,-1.465,49.316,0
1539631691.685,-2.441,-977.539,-1000.000,-0.488,-1.465,0
1539631691.689,0.000,-957.031,-834.473,4.883,27.344,0
1539631691.693,3.906,-953.125,-658.691,11.230,58.594,0
1539631691.697,9.277,-968.750,-834.961,11.719,30.762,0
1539631691.700,13.184,-977.539,-885.254,10.742,14.160,0
1539631691.704,16.113,-938.965,-674.805,11.719,18.066,0
1539631691.708,12.207,-902.832,-608.887,13.672,23.926,0
1539631691.712,13.672,-960.938,-805.176,9.766,-9.277,0
1539631691.716,14.648,-965.332,-806.152,9.277,18.555,0
1539631691.720,8.789,-892.578,-574.219,12.695,67.383,0
1539631691.724,7.324,-908.691,-595.215,12.207,20.508,0
1539631691.728,10.742,-971.191,-787.598,14.648,-3.418,0
1539631691.732,16.602,-977.539,-803.711,15.625,25.879,0
1539631691.736,15.137,-932.129,-612.793,13.672,34.668,0
1539631691.739,11.230,-923.828,-596.191,9.766,64.453,0
1539631691.743,2.930,-971.680,-869.629,6.836,37.109,0
1539631691.747,2.930,-976.074,-854.980,6.348,-16.113,0
1539631691.751,7.324,-909.180,-566.406,6.836,23.438,0
1539631691.755,9.766,-888.184,-580.078,7.812,58.594,0
1539631691.759,18.555,-976.074,-704.102,11.719,16.113,0
1539631691.763,21.484,-956.543,-631.836,11.230,20.996,0
1539631691.767,19.043,-901.855,-557.617,7.812,48.340,0
1539631691.771,20.020,-934.570,-674.316,10.254,20.996,0
1539631691.775,26.367,-974.121,-820.312,13.184,34.180,0
1539631691.779,22.949,-970.703,-854.004,9.277,43.457,0
1539631691.782,18.066,-969.727,-741.211,6.348,54.199,0
1539631691.786,16.602,-966.309,-790.039,6.836,24.414,0
1539631691.790,18.066,-981.934,-949.707,4.395,8.301,0
1539631691.794,23.926,-917.480,-682.617,2.441,69.824,0
1539631691.798,21.484,-899.414,-629.395,6.348,65.430,0
1539631691.802,18.066,-979.492,-830.078,12.695,1.953,0
1539631691.806,20.996,-942.383,-721.191,12.207,20.996,0
1539631691.810,22.949,-849.121,-550.293,9.277,82.520,0
1539631691.814,19.531,-789.551,-488.281,6.836,143.066,0
1539631691.818,17.578,-901.367,-598.145,5.859,105.957,0
1539631691.822,20.020,-984.863,-770.508,8.789,41.016,0
1539631691.825,18.555,-964.844,-839.844,6.836,14.160,0
1539631691.829,17.578,-970.703,-780.762,5.371,-5.371,0
1539631691.833,19.043,-969.727,-892.090,5.859,39.062,0
1539631691.837,20.020,-975.098,-892.578,3.906,44.434,0
1539631691.841,20.996,-944.336,-645.508,4.883,7.812,0
1539631691.845,24.902,-935.547,-677.734,7.812,37.109,0
1539631691.849,27.344,-976.074,-787.598,10.742,37.109,0
1539631691.853,20.996,-955.566,-707.520,5.859,18.555,0
1539631691.857,16.113,-947.754,-702.148,4.395,57.129,0
1539631691.861,16.602,-974.121,-814.941,7.324,34.668,0
1539631691.864,14.648,-970.703,-800.293,7.812,8.789,0
1539631691.868,7.324,-970.215,-792.480,1.953,16.602,0
1539631691.872,-1.953,-971.191,-857.910,-8.301,26.855,0
1539631691.876,-17.578,-971.191,-925.781,-26.367,-5.859,0
1539631691.880,-42.480,-970.703,-984.375,-53.223,-45.898,0
1539631691.884,-64.453,-970.703,-906.738,-76.660,-32.227,0
1539631691.888,-80.078,-971.191,-813.965,-94.727,6.348,0
1539631691.892,-90.820,-971.191,-910.645,-106.934,-1.953,0
1539631691.896,-104.980,-971.191,-973.633,-120.605,3.418,0
1539631691.900,-118.164,-971.191,-918.945,-127.441,7.324,0
1539631691.904,-126.465,-971.191,-927.734,-136.230,46.875,0
1539631691.907,-130.859,-971.191,-973.633,-143.066,57.617,0
1539631691.911,-131.836,-971.191,-963.379,-150.391,38.574,0
1539631691.915,-130.859,-970.703,-964.355,-151.855,35.156,0
1539631691.919,-125.488,-970.703,-967.773,-141.602,31.250,0
1539631691.923,-113.770,-970.215,-976.562,-130.859,20.020,0
1539631691.927,-105.957,-973.633,-938.965,-123.535,5.859,0
1539631691.931,-99.609,-957.520,-771.484,-115.723,72.754,0
1539631691.935,-92.285,-958.496,-813.477,-102.539,51.270,0
1539631691.939,-83.008,-962.891,-900.879,-87.402,51.270,0
1539631691.943,-68.359,-960.938,-836.426,-75.195,42.480,0
1539631691.947,-56.152,-970.703,-806.641,-63.477,3.418,0
1539631691.950,-45.410,-962.402,-846.191,-54.688,43.945,0
1539631691.954,-34.668,-966.797,-863.281,-43.945,46.387,0
1539631691.958,-21.484,-969.727,-818.359,-29.785,-16.113,0
1539631691.962,-9.277,-971.191,-931.152,-15.137,-48.828,0
1539631691.966,1.465,-971.191,-977.539,-0.488,34.180,0
1539631691.970,12.207,-966.797,-960.449,8.301,54.688,0
1539631691.974,21.973,-983.398,-860.352,14.648,57.617,0
1539631691.978,31.738,-918.945,-687.988,23.926,78.613,0
1539631691.982,37.109,-908.203,-691.895,34.180,64.941,0
1539631691.986,46.387,-939.941,-718.262,42.480,42.480,0
1539631691.989,61.035,-850.098,-619.141,47.363,38.086,0
1539631691.993,70.801,-797.852,-567.383,58.105,72.266,0
1539631691.997,77.148,-896.484,-653.809,63.965,72.754,0
1539631692.001,85.938,-869.629,-639.648,69.336,88.379,0
1539631692.005,96.191,-773.926,-523.926,79.590,111.328,0
1539631692.009,101.562,-919.922,-707.031,82.520,49.805,0
1539631692.013,101.562,-979.004,-949.219,80.078,18.555,0
1539631692.017,99.609,-965.820,-892.578,81.543,15.625,0
1539631692.021,103.027,-898.926,-680.176,81.055,-3.906,0
1539631692.025,102.539,-858.887,-634.766,71.289,45.410,0
1539631692.029,101.562,-961.426,-768.066,74.707,74.707,0
1539631692.032,99.609,-977.539,-784.180,78.613,54.688,0
1539631692.036,90.332,-867.676,-621.094,71.289,51.270,0
1539631692.040,98.145,-884.277,-667.969,70.312,25.391,0
1539631692.044,103.516,-955.566,-750.000,71.289,26.367,0
1539631692.048,98.633,-904.297,-680.176,74.219,20.020,0
1539631692.052,98.145,-876.465,-648.438,77.637,17.090,0
1539631692.056,102.539,-929.199,-802.734,74.219,48.340,0
1539631692.060,100.586,-985.352,-975.586,62.988,19.043,0
1539631692.064,96.191,-891.602,-770.020,58.594,62.012,0
1539631692.068,97.656,-801.758,-612.793,58.105,81.055,0
1539631692.072,98.633,-883.301,-744.141,54.199,48.340,0
1539631692.075,91.797,-982.422,-838.379,52.246,8.301,0
1539631692.079,86.426,-919.434,-748.535,48.828,14.648,0
1539631692.083,85.938,-878.906,-723.633,45.898,29.297,0
1539631692.087,86.914,-941.895,-854.492,43.945,20.020,0
1539631692.091,86.914,-975.586,-956.543,38.086,-41.992,0
1539631692.095,80.078,-968.750,-928.711,37.109,-102.051,0
1539631692.099,69.336,-969.727,-864.258,40.527,-28.320,0
1539631692.103,72.754,-970.215,-919.434,43.457,38.574,0
1539631692.107,80.566,-971.191,-984.375,36.621,22.461,0
1539631692.111,77.637,-971.680,-965.332,31.738,-18.066,0
1539631692.114,80.078,-967.773,-957.520,40.527,-16.602,0
1539631692.118,86.426,-977.051,-981.934,37.109,-5.371,0
1539631692.122,83.496,-947.266,-908.691,28.809,33.691,0
1539631692.126,80.078,-871.582,-747.070,28.320,55.664,0
1539631692.130,81.055,-912.598,-821.777,29.297,29.785,0
1539631692.134,82.520,-949.219,-896.484,31.250,44.434,0
1539631692.138,83.008,-880.859,-780.762,33.203,51.758,0
1539631692.142,81.543,-835.449,-708.984,32.227,61.035,0
1539631692.146,77.148,-893.555,-814.941,30.273,77.148,0
1539631692.150,71.777,-976.074,-977.539,31.738,16.602,0
1539631692.154,69.336,-970.215,-970.703,29.785,-32.227,0
1539631692.157,68.848,-968.262,-964.355,22.949,-39.551,0
1539631692.161,69.824,-970.215,-971.191,14.648,5.371,0
1539631692.165,67.383,-975.098,-973.633,7.324,41.504,0
1539631692.169,65.430,-928.711,-874.023,11.719,21.973,0
1539631692.173,64.941,-866.211,-763.184,18.066,20.508,0
1539631692.177,68.359,-914.062,-818.848,22.949,57.617,0
1539631692.181,69.336,-938.477,-837.402,27.344,62.500,0
1539631692.185,66.895,-861.816,-743.164,24.902,43.457,0
1539631692.189,67.871,-853.027,-727.051,24.414,37.109,0
1539631692.193,65.430,-948.730,-842.773,25.879,9.277,0
1539631692.197,65.430,-974.121,-904.785,23.438,49.316,0
1539631692.200,64.941,-967.285,-926.270,21.973,43.457,0
1539631692.204,59.570,-968.262,-946.289,23.926,35.645,0
1539631692.208,60.059,-974.121,-979.004,18.066,29.785,0
