timestamps,TP9,AF7,AF8,TP10,Right AUX,Marker0
1539545099.154,36.133,-969.238,-567.871,34.668,112.305,0
1539545099.158,41.016,-969.238,-641.113,32.715,60.547,0
1539545099.162,43.457,-969.238,-814.453,37.598,-5.371,0
1539545099.166,47.852,-969.238,-899.414,40.527,0.000,0
1539545099.170,50.293,-969.238,-846.191,40.039,42.480,0
1539545099.174,46.387,-969.238,-866.211,38.086,53.711,0
1539545099.178,51.270,-969.238,-982.910,44.434,-27.344,0
1539545099.182,50.293,-969.238,-947.266,46.875,-48.340,0
1539545099.186,33.691,-969.238,-755.371,32.715,48.828,0
1539545099.189,34.180,-969.238,-631.348,26.855,105.957,0
1539545099.193,44.922,-969.238,-856.445,27.832,19.531,0
1539545099.197,39.062,-969.238,-909.180,32.227,-25.879,0
1539545099.201,33.203,-969.238,-665.527,28.320,72.266,0
1539545099.205,38.086,-969.238,-659.180,28.809,118.164,0
1539545099.209,40.039,-969.238,-834.961,39.062,58.105,0
1539545099.213,37.109,-969.238,-873.535,28.809,-2.930,0
1539545099.217,27.344,-969.238,-763.184,20.996,41.992,0
1539545099.221,23.926,-969.238,-812.012,29.297,118.164,0
1539545099.225,32.715,-969.238,-975.098,35.156,54.199,0
1539545099.229,29.785,-969.238,-958.008,31.250,-20.020,0
1539545099.232,21.973,-969.238,-831.055,30.762,17.578,0
1539545099.236,20.508,-969.238,-819.336,27.344,82.520,0
1539545099.240,20.020,-969.238,-860.840,26.855,95.703,0
1539545099.244,16.113,-969.238,-879.883,34.668,19.531,0
1539545099.248,14.160,-969.238,-871.582,45.410,2.441,0
1539545099.252,18.555,-969.238,-875.488,41.992,59.082,0
1539545099.256,22.461,-969.238,-832.520,21.484,103.516,0
1539545099.260,21.973,-969.238,-807.129,19.531,73.730,0
1539545099.264,13.184,-969.238,-941.895,28.809,7.812,0
1539545099.268,1.465,-969.238,-967.285,22.461,24.902,0
1539545099.272,-6.348,-969.238,-966.797,-1.953,75.684,0
1539545099.275,-17.578,-969.238,-969.238,-13.184,56.152,0
1539545099.279,-25.391,-969.238,-966.797,-18.555,-17.090,0
1539545099.283,-31.738,-969.238,-975.098,-32.227,-3.418,0
1539545099.287,-38.086,-969.238,-950.195,-29.785,69.824,0
1539545099.291,-59.082,-969.238,-929.688,-41.016,71.289,0
1539545099.295,-83.496,-969.238,-967.773,-67.383,-14.160,0
1539545099.299,-89.844,-969.238,-971.191,-72.266,-20.020,0
1539545099.303,-89.844,-969.238,-967.285,-69.824,75.684,0
1539545099.307,-102.051,-969.238,-969.727,-79.590,99.609,0
1539545099.311,-102.051,-969.238,-969.238,-83.008,-5.371,0
1539545099.314,-104.004,-969.238,-969.238,-110.840,-46.387,0
1539545099.318,-126.465,-969.238,-969.238,-139.160,17.090,0
1539545099.322,-129.395,-969.238,-969.238,-121.094,60.059,0
1539545099.326,-116.699,-969.238,-969.238,-96.191,20.020,0
1539545099.330,-104.004,-969.238,-969.238,-94.727,-54.199,0
1539545099.334,-104.492,-969.238,-969.238,-100.098,-8.789,0
1539545099.338,-90.332,-969.238,-969.238,-87.402,75.684,0
1539545099.342,-77.637,-969.238,-969.238,-85.449,36.621,0
1539545099.346,-67.383,-969.238,-965.820,-73.730,-32.715,0
1539545099.350,-48.340,-969.238,-979.492,-51.758,-26.367,0
1539545099.354,-44.922,-969.238,-925.293,-39.551,67.871,0
1539545099.357,-43.945,-969.238,-910.645,-28.320,85.449,0
1539545099.361,-23.438,-969.238,-972.168,-6.348,-18.555,0
1539545099.365,-8.301,-969.238,-978.516,1.465,-14.648,0
1539545099.369,-9.766,-969.238,-921.387,-2.930,83.496,0
1539545099.373,9.766,-969.238,-909.668,14.160,78.613,0
1539545099.377,31.738,-969.238,-981.934,25.879,-22.949,0
1539545099.381,37.109,-969.238,-955.566,27.832,-2.441,0
1539545099.385,41.992,-969.238,-861.816,38.574,84.473,0
1539545099.389,48.340,-969.238,-851.074,57.617,123.047,0
1539545099.393,50.781,-969.238,-860.840,61.035,83.008,0
1539545099.397,57.129,-969.238,-919.434,53.711,14.160,0
1539545099.400,67.383,-969.238,-994.141,62.500,24.902,0
1539545099.404,69.824,-969.238,-875.000,75.195,108.887,0
1539545099.408,74.707,-969.238,-846.191,84.961,111.816,0
1539545099.412,74.707,-969.238,-970.215,86.426,18.555,0
1539545099.416,67.871,-969.238,-957.520,72.754,14.160,0
1539545099.420,69.824,-969.238,-963.379,65.918,66.895,0
1539545099.424,68.848,-969.238,-833.984,71.289,91.797,0
1539545099.428,73.242,-969.238,-760.254,80.078,36.621,0
1539545099.432,74.707,-969.238,-902.344,83.496,2.441,0
1539545099.436,69.336,-969.238,-833.008,87.402,70.801,0
1539545099.439,71.777,-969.238,-675.293,90.820,101.074,0
1539545099.443,81.543,-969.238,-725.098,87.891,41.504,0
1539545099.447,86.426,-969.238,-886.719,81.543,-19.043,0
1539545099.451,78.613,-969.238,-791.016,83.496,41.992,0
1539545099.455,77.637,-969.238,-721.680,89.844,100.586,0
1539545099.459,83.984,-969.238,-906.738,100.586,32.715,0
1539545099.463,88.379,-969.238,-991.699,105.469,-58.594,0
1539545099.467,77.637,-969.238,-874.023,96.680,-6.348,0
1539545099.471,63.965,-969.238,-611.816,92.773,108.398,0
1539545099.475,72.754,-969.238,-605.957,93.750,89.355,0
1539545099.479,76.172,-969.238,-863.770,85.449,-12.207,0
1539545099.482,65.918,-969.238,-787.109,78.613,12.695,0
1539545099.486,61.523,-969.238,-582.520,74.707,90.820,0
1539545099.490,67.871,-969.238,-683.594,74.219,75.195,0
1539545099.494,77.637,-969.238,-850.586,88.379,7.324,0
1539545099.498,73.730,-969.238,-787.109,85.449,-4.395,0
1539545099.502,72.754,-969.238,-770.020,82.031,59.082,0
1539545099.506,74.219,-969.238,-857.910,86.426,83.984,0
1539545099.510,68.848,-969.238,-940.918,76.172,12.207,0
1539545099.514,60.547,-969.238,-994.141,70.312,-41.504,0
1539545099.518,56.152,-969.238,-815.430,71.777,25.391,0
1539545099.522,56.152,-969.238,-675.781,75.195,88.867,0
1539545099.525,58.105,-969.238,-713.867,75.684,58.594,0
1539545099.529,56.152,-969.238,-675.293,67.871,9.766,0
1539545099.533,51.270,-969.238,-662.598,65.430,11.719,0
1539545099.537,49.316,-969.238,-715.332,69.336,44.434,0
1539545099.541,47.852,-969.238,-718.262,72.266,48.828,0
1539545099.545,46.875,-969.238,-719.238,77.637,-3.906,0
1539545099.549,47.363,-969.238,-824.707,79.590,-3.906,0
1539545099.553,49.805,-969.238,-934.082,73.730,26.855,0
1539545099.557,45.898,-969.238,-918.945,62.500,14.160,0
1539545099.561,43.945,-969.238,-786.621,55.664,-14.160,0
1539545099.564,48.340,-969.238,-723.145,55.664,-18.555,0
1539545099.568,43.945,-969.238,-729.492,61.035,37.109,0
1539545099.572,41.992,-969.238,-684.082,80.078,80.566,0
1539545099.576,44.434,-969.238,-639.160,78.125,32.715,0
1539545099.580,47.852,-969.238,-743.164,72.266,-34.180,2
1539545099.584,45.898,-969.238,-695.312,71.289,32.227,0
1539545099.588,42.480,-969.238,-537.109,55.664,94.727,0
1539545099.592,48.340,-969.238,-609.863,60.059,33.691,0
1539545099.596,58.594,-969.238,-842.285,72.754,-38.086,0
1539545099.600,60.059,-969.238,-988.770,64.453,-29.785,0
1539545099.604,47.852,-969.238,-785.156,50.293,44.922,0
1539545099.607,41.016,-969.238,-570.312,57.617,66.895,0
1539545099.611,46.387,-969.238,-785.156,66.895,-15.137,0
1539545099.615,47.852,-969.238,-834.473,60.547,-20.020,0
1539545099.619,43.945,-969.238,-620.605,67.871,52.246,0
1539545099.623,41.504,-969.238,-564.453,70.801,77.148,0
1539545099.627,49.805,-969.238,-771.973,68.359,5.859,0
1539545099.631,52.246,-969.238,-942.383,73.730,-50.293,0
1539545099.635,39.551,-969.238,-725.098,68.359,21.973,0
1539545099.639,41.016,-969.238,-627.930,65.918,68.359,0
1539545099.643,49.805,-969.238,-837.402,76.660,0.488,0
1539545099.647,47.363,-969.238,-998.535,78.613,-45.898,0
1539545099.650,41.992,-969.238,-830.566,64.453,20.020,0
1539545099.654,41.504,-969.238,-646.973,48.340,77.637,0
1539545099.658,51.270,-969.238,-839.844,56.641,15.137,0
1539545099.662,53.711,-969.238,-948.242,59.570,-44.434,0
1539545099.666,53.223,-969.238,-721.680,54.688,18.066,0
1539545099.670,63.477,-969.238,-693.848,59.082,53.711,0
1539545099.674,57.617,-969.238,-809.082,65.918,37.598,0
1539545099.678,46.387,-969.238,-833.496,73.730,-15.137,0
1539545099.682,45.410,-969.238,-720.215,73.242,4.883,0
1539545099.686,45.898,-969.238,-736.328,70.801,67.383,0
1539545099.689,41.016,-969.238,-916.504,70.312,61.523,0
1539545099.693,36.621,-969.238,-951.660,69.336,0.488,0
1539545099.697,41.992,-969.238,-916.016,59.570,-48.828,0
1539545099.701,44.922,-969.238,-862.305,48.828,17.090,0
1539545099.705,42.480,-969.238,-966.309,58.594,27.344,0
1539545099.709,37.109,-969.238,-901.855,65.430,12.695,0
1539545099.713,41.016,-969.238,-807.129,64.941,1.953,0
1539545099.717,43.945,-969.238,-906.250,50.781,5.371,0
1539545099.721,33.691,-969.238,-850.586,38.086,79.102,0
1539545099.725,36.621,-969.238,-840.332,49.805,51.758,0
1539545099.729,39.062,-969.238,-974.609,57.617,-36.621,0
1539545099.732,34.180,-969.238,-949.219,47.852,5.371,0
1539545099.736,34.180,-969.238,-964.844,50.293,59.082,0
1539545099.740,32.227,-969.238,-971.680,53.711,69.824,0
1539545099.744,30.762,-969.238,-962.402,51.758,6.348,0
1539545099.748,31.250,-969.238,-979.004,51.270,-48.828,0
1539545099.752,24.902,-969.238,-925.781,46.387,36.133,0
1539545099.756,18.066,-969.238,-796.875,46.875,93.262,0
1539545099.760,25.879,-969.238,-848.633,62.500,35.645,0
1539545099.764,31.250,-969.238,-964.355,62.500,-13.184,0
1539545099.768,28.809,-969.238,-864.746,44.434,38.574,0
1539545099.772,31.738,-969.238,-734.375,46.875,93.262,0
1539545099.775,41.992,-969.238,-817.871,60.059,55.664,0
1539545099.779,41.016,-969.238,-958.984,71.289,-13.672,0
1539545099.783,28.320,-969.238,-981.445,75.684,7.812,0
1539545099.787,24.414,-969.238,-886.230,62.988,100.586,0
1539545099.791,30.762,-969.238,-848.633,49.316,80.078,0
1539545099.795,36.621,-969.238,-968.750,51.270,-31.250,0
1539545099.799,28.320,-969.238,-937.500,43.457,-0.977,0
1539545099.803,28.809,-969.238,-802.734,46.387,91.309,0
1539545099.807,31.738,-969.238,-822.754,55.664,94.727,0
1539545099.811,34.180,-969.238,-954.590,50.293,18.066,0
1539545099.814,35.156,-969.238,-855.469,46.387,15.137,0
1539545099.818,35.156,-969.238,-730.469,57.129,83.008,0
1539545099.822,38.086,-969.238,-761.230,57.617,109.375,0
1539545099.826,35.645,-969.238,-859.863,58.594,46.875,0
1539545099.830,35.645,-969.238,-962.891,70.312,-25.879,0
1539545099.834,38.086,-969.238,-935.059,69.336,29.297,0
1539545099.838,39.062,-969.238,-913.086,49.805,64.453,0
1539545099.842,34.180,-969.238,-966.309,46.387,22.949,0
1539545099.846,22.949,-969.238,-902.832,41.992,-2.441,0
1539545099.850,20.508,-969.238,-848.145,40.039,19.531,0
1539545099.854,23.438,-969.238,-861.328,42.480,70.801,0
1539545099.857,28.320,-969.238,-898.438,39.551,59.570,0
1539545099.861,29.785,-969.238,-960.938,42.969,-12.695,0
1539545099.865,26.855,-969.238,-953.125,38.086,0.977,0
1539545099.869,27.344,-969.238,-899.902,32.715,69.824,0
1539545099.873,34.180,-969.238,-848.633,47.852,82.031,0
1539545099.877,52.734,-969.238,-931.152,79.102,1.953,0
1539545099.881,47.363,-969.238,-978.027,67.871,-48.828,0
1539545099.885,20.996,-969.238,-972.656,32.227,3.906,0
1539545099.889,2.441,-969.238,-882.324,9.277,64.941,0
1539545099.893,4.395,-969.238,-844.238,5.859,32.227,0
1539545099.897,8.301,-969.238,-970.703,21.484,-43.457,0
1539545099.900,-6.836,-969.238,-905.273,4.395,9.277,0
1539545099.904,-13.672,-969.238,-770.508,-6.836,81.055,0
1539545099.908,-10.254,-969.238,-777.344,4.395,58.105,0
1539545099.912,-6.836,-969.238,-890.137,13.672,-6.836,0
1539545099.916,-3.906,-969.238,-983.887,12.695,-1.465,0
1539545099.920,-3.906,-969.238,-853.516,1.465,81.055,0
1539545099.924,2.930,-969.238,-853.027,1.953,87.402,0
1539545099.928,15.625,-969.238,-989.746,14.648,-20.996,0
1539545099.932,16.602,-969.238,-934.570,19.531,-45.410,0
1539545099.936,4.395,-969.238,-833.984,12.207,53.711,0
1539545099.939,3.906,-969.238,-752.441,20.996,98.145,0
1539545099.943,10.254,-969.238,-831.055,34.668,48.828,0
1539545099.947,13.184,-969.238,-899.902,34.180,-9.766,0
1539545099.951,11.719,-969.238,-735.840,13.672,45.410,0
1539545099.955,15.137,-969.238,-704.590,11.719,97.656,0
1539545099.959,21.484,-969.238,-869.141,24.414,43.945,0
1539545099.963,23.438,-969.238,-905.762,24.414,-21.484,0
1539545099.967,26.855,-969.238,-804.199,20.508,17.090,0
1539545099.971,24.902,-969.238,-882.812,29.297,61.523,0
1539545099.975,26.367,-969.238,-987.305,41.016,12.695,0
1539545099.979,28.320,-969.238,-961.914,40.527,-35.156,0
1539545099.982,21.973,-969.238,-823.242,35.645,4.883,0
1539545099.986,17.090,-969.238,-804.199,33.691,68.359,0
1539545099.990,14.160,-969.238,-873.047,25.391,68.359,0
1539545099.994,14.160,-969.238,-880.859,27.832,-1.953,0
1539545099.998,13.672,-969.238,-854.492,25.391,-10.742,0
1539545100.002,17.090,-969.238,-775.879,27.832,80.078,0
1539545100.006,21.973,-969.238,-746.094,43.945,116.211,0
1539545100.010,21.973,-969.238,-804.199,55.664,44.922,0
1539545100.014,23.438,-969.238,-895.996,46.875,-15.137,0
1539545100.018,26.855,-969.238,-927.246,31.250,24.902,0
1539545100.022,27.832,-969.238,-973.633,34.668,75.195,0
1539545100.025,20.508,-969.238,-909.668,38.574,55.176,0
1539545100.029,28.809,-969.238,-889.160,35.645,1.465,0
1539545100.033,40.527,-969.238,-967.285,33.691,-6.836,0
1539545100.037,25.391,-969.238,-913.574,21.973,55.176,0
1539545100.041,17.578,-969.238,-750.977,16.602,107.910,0
1539545100.045,29.785,-969.238,-840.332,42.480,41.504,0
1539545100.049,26.367,-969.238,-907.715,47.852,29.785,0
1539545100.053,20.020,-969.238,-769.043,40.039,96.680,0
1539545100.057,23.438,-969.238,-708.008,43.945,105.957,0
1539545100.061,35.156,-969.238,-824.707,54.199,39.551,0
1539545100.064,38.086,-969.238,-978.516,57.617,-2.441,0
1539545100.068,23.926,-969.238,-956.055,50.781,64.453,0
1539545100.072,24.414,-969.238,-873.047,49.805,80.566,0
1539545100.076,33.691,-969.238,-906.738,51.758,11.719,0
1539545100.080,32.715,-969.238,-996.582,42.969,-29.785,0
1539545100.084,29.297,-969.238,-836.914,35.645,52.246,0
1539545100.088,30.273,-969.238,-767.090,39.062,126.465,0
1539545100.092,35.645,-969.238,-950.684,44.922,33.691,0
1539545100.096,33.691,-969.238,-987.305,46.875,-54.688,0
1539545100.100,20.020,-969.238,-872.559,38.086,15.137,0
1539545100.104,11.230,-969.238,-691.895,39.551,116.699,0
1539545100.107,25.879,-969.238,-806.641,60.059,76.172,0
1539545100.111,40.039,-969.238,-985.352,55.664,-27.832,0
1539545100.115,27.344,-969.238,-973.145,36.621,-6.836,0
1539545100.119,23.438,-969.238,-857.422,34.180,66.895,0
1539545100.123,40.527,-969.238,-870.117,51.758,74.219,0
1539545100.127,36.621,-969.238,-997.559,57.617,-5.859,0
1539545100.131,23.438,-969.238,-912.109,45.410,-6.836,0
1539545100.135,20.996,-969.238,-768.555,42.969,88.867,0
1539545100.139,20.508,-969.238,-812.500,41.992,112.793,0
1539545100.143,16.602,-969.238,-862.793,32.227,58.105,0
1539545100.147,17.578,-969.238,-925.781,36.621,-8.789,0
1539545100.150,19.043,-969.238,-983.887,36.133,-11.230,0
1539545100.154,15.625,-969.238,-917.480,32.715,63.965,0
1539545100.158,22.461,-969.238,-924.316,37.109,63.477,0
1539545100.162,24.414,-969.238,-977.539,31.250,-5.859,0
1539545100.166,15.137,-969.238,-967.285,32.715,2.930,0
1539545100.170,11.719,-969.238,-970.215,34.180,39.551,0
1539545100.174,8.301,-969.238,-945.312,29.297,60.547,0
1539545100.178,12.207,-969.238,-952.148,29.297,5.859,0
1539545100.182,15.137,-969.238,-979.492,36.133,-15.625,0
1539545100.186,12.695,-969.238,-935.059,46.387,59.082,0
1539545100.189,18.066,-969.238,-827.637,36.621,108.398,0
1539545100.193,21.484,-969.238,-856.445,29.785,70.312,0
1539545100.197,26.855,-969.238,-973.633,50.293,7.324,0
1539545100.201,28.809,-969.238,-908.203,53.223,63.477,0
1539545100.205,23.438,-969.238,-898.926,30.762,120.605,0
1539545100.209,22.949,-969.238,-970.703,30.762,63.477,0
1539545100.213,24.902,-969.238,-979.004,43.945,-37.109,0
1539545100.217,20.020,-969.238,-922.852,33.203,3.418,0
1539545100.221,17.090,-969.238,-728.516,24.902,143.555,0
1539545100.225,22.461,-969.238,-752.441,30.273,118.164,0
1539545100.229,24.414,-969.238,-942.383,36.621,14.648,0
1539545100.232,24.902,-969.238,-953.613,50.781,5.859,0
1539545100.236,21.484,-969.238,-836.426,58.594,72.266,0
1539545100.240,20.020,-969.238,-822.754,59.570,91.797,0
1539545100.244,28.320,-969.238,-949.219,50.781,23.926,0
1539545100.248,25.879,-969.238,-951.660,37.109,-0.977,0
1539545100.252,24.414,-969.238,-941.895,37.598,52.246,0
1539545100.256,32.227,-969.238,-975.098,46.387,79.102,0
1539545100.260,35.645,-969.238,-960.938,39.062,36.621,0
1539545100.264,28.809,-969.238,-990.234,30.762,-12.207,0
1539545100.268,25.391,-969.238,-862.305,40.527,56.641,0
1539545100.272,28.320,-969.238,-827.148,49.805,101.074,0
1539545100.275,26.855,-969.238,-949.219,49.805,51.758,0
1539545100.279,27.344,-969.238,-922.363,41.016,17.090,0
1539545100.283,28.320,-969.238,-830.078,39.062,49.316,0
1539545100.287,25.879,-969.238,-856.445,43.945,83.984,0
1539545100.291,29.297,-969.238,-931.641,34.668,65.430,0
1539545100.295,31.250,-969.238,-922.363,32.227,18.555,0
1539545100.299,30.273,-969.238,-965.820,52.734,3.418,0
1539545100.303,29.785,-969.238,-973.633,65.430,34.668,0
1539545100.307,27.832,-969.238,-945.312,62.500,51.270,0
1539545100.311,25.879,-969.238,-949.219,46.875,15.137,0
1539545100.314,26.367,-969.238,-931.152,38.574,-3.906,0
1539545100.318,27.832,-969.238,-924.316,41.016,64.941,0
1539545100.322,31.738,-969.238,-919.434,32.715,98.633,0
1539545100.326,34.180,-969.238,-910.156,31.738,41.016,0
1539545100.330,33.203,-969.238,-981.934,44.434,-33.691,0
1539545100.334,27.832,-969.238,-930.664,43.457,23.926,0
1539545100.338,24.902,-969.238,-837.402,43.457,97.168,0
1539545100.342,27.832,-969.238,-893.555,48.828,48.340,0
1539545100.346,39.062,-969.238,-962.402,52.734,-35.156,0
1539545100.350,42.480,-969.238,-988.281,47.852,-35.645,0
1539545100.354,26.367,-969.238,-873.535,36.133,69.336,0
1539545100.357,29.297,-969.238,-816.406,43.457,100.098,0
1539545100.361,36.621,-969.238,-971.680,55.176,10.742,0
1539545100.365,30.762,-969.238,-885.254,52.734,29.785,0
1539545100.369,30.762,-969.238,-727.051,58.594,100.586,0
1539545100.373,25.879,-969.238,-755.859,61.523,83.984,0
1539545100.377,24.414,-969.238,-881.348,44.434,22.949,0
1539545100.381,32.715,-969.238,-974.121,33.203,-13.184,0
1539545100.385,23.438,-969.238,-854.004,28.320,46.875,0
1539545100.389,22.461,-969.238,-745.117,35.156,102.051,0
1539545100.393,31.738,-969.238,-872.070,51.758,34.180,0
1539545100.397,35.645,-969.238,-1000.000,56.152,-46.875,0
1539545100.400,34.180,-969.238,-895.508,51.270,21.973,0
1539545100.404,36.133,-969.238,-751.953,45.898,102.539,0
1539545100.408,40.527,-969.238,-880.859,53.223,36.621,0
1539545100.412,32.715,-969.238,-997.559,61.523,-50.293,0
1539545100.416,21.484,-969.238,-914.062,41.992,-6.836,0
1539545100.420,18.066,-969.238,-840.820,35.156,62.500,0
1539545100.424,22.461,-969.238,-861.328,40.039,73.730,0
1539545100.428,19.531,-969.238,-887.695,32.227,24.902,0
1539545100.432,16.113,-969.238,-888.184,31.738,-7.324,0
1539545100.436,18.555,-969.238,-880.859,28.320,52.246,0
1539545100.439,21.484,-969.238,-952.637,28.809,88.867,0
1539545100.443,23.438,-969.238,-975.586,38.574,3.418,0
1539545100.447,24.414,-969.238,-964.355,34.180,-55.664,0
1539545100.451,32.715,-969.238,-960.938,36.621,10.742,0
1539545100.455,38.574,-969.238,-961.914,55.664,62.500,0
1539545100.459,15.625,-969.238,-946.777,51.758,23.926,0
1539545100.463,3.418,-969.238,-920.410,37.109,-30.273,0
1539545100.467,20.996,-969.238,-935.547,38.086,9.277,0
1539545100.471,24.414,-969.238,-875.488,45.898,83.984,0
1539545100.475,22.461,-969.238,-822.266,48.340,64.941,0
1539545100.479,27.832,-969.238,-886.230,41.016,0.488,0
1539545100.482,31.738,-969.238,-884.766,46.875,29.785,0
1539545100.486,40.527,-969.238,-935.547,60.059,76.660,0
1539545100.490,41.992,-969.238,-972.168,46.387,87.891,0
1539545100.494,38.086,-969.238,-959.961,33.203,13.672,0
1539545100.498,43.457,-969.238,-980.957,40.039,-65.430,0
1539545100.502,38.574,-969.238,-917.480,41.016,20.996,0
1539545100.506,33.691,-969.238,-756.836,34.180,114.258,0
1539545100.510,52.246,-969.238,-808.105,43.457,67.871,0
1539545100.514,54.688,-969.238,-968.750,57.129,-20.996,0
1539545100.518,41.504,-969.238,-912.598,58.105,20.508,0
1539545100.522,37.109,-969.238,-818.848,63.965,92.773,0
1539545100.525,35.645,-969.238,-902.832,76.660,37.598,0
1539545100.529,37.109,-969.238,-973.633,65.430,-25.879,0
1539545100.533,32.227,-969.238,-967.773,49.805,1.465,0
1539545100.537,25.879,-969.238,-967.773,47.363,51.270,0
1539545100.541,35.156,-969.238,-966.797,42.969,62.012,0
1539545100.545,45.898,-969.238,-970.703,54.199,-2.441,0
1539545100.549,37.109,-969.238,-958.984,54.688,7.324,0
1539545100.553,36.133,-969.238,-954.102,46.387,66.406,0
1539545100.557,44.434,-969.238,-961.914,56.152,59.570,0
1539545100.561,47.852,-969.238,-966.309,55.176,5.859,0
1539545100.564,48.340,-969.238,-970.215,35.645,-3.906,0
1539545100.568,42.480,-969.238,-929.688,41.504,61.523,0
1539545100.572,38.574,-969.238,-928.711,54.688,94.727,0
1539545100.576,42.480,-969.238,-966.797,55.176,37.598,0
1539545100.580,39.551,-969.238,-982.422,56.641,-11.230,0
1539545100.584,25.879,-969.238,-924.316,50.781,59.082,0
1539545100.588,28.320,-969.238,-896.973,42.480,110.840,0
1539545100.592,34.180,-969.238,-974.121,45.898,46.875,0
1539545100.596,27.832,-969.238,-965.332,43.945,-8.789,0
1539545100.600,27.344,-969.238,-978.516,39.551,-7.324,1
1539545100.604,34.180,-969.238,-925.781,48.340,77.148,0
1539545100.607,33.691,-969.238,-828.613,60.547,105.469,0
1539545100.611,33.691,-969.238,-912.598,64.941,29.785,0
1539545100.615,38.086,-969.238,-981.445,53.711,-9.277,0
1539545100.619,34.668,-969.238,-944.824,46.875,38.086,0
1539545100.623,32.227,-969.238,-810.547,52.246,102.539,0
1539545100.627,29.297,-969.238,-873.047,52.734,28.809,0
1539545100.631,28.809,-969.238,-998.535,45.898,-27.344,0
1539545100.635,30.273,-969.238,-916.504,46.875,43.457,0
1539545100.639,28.809,-969.238,-734.375,48.828,105.957,0
1539545100.643,33.203,-969.238,-695.801,55.176,84.961,0
1539545100.647,37.598,-969.238,-884.766,62.012,-5.371,0
1539545100.650,37.598,-969.238,-964.844,50.293,8.301,0
1539545100.654,32.715,-969.238,-734.863,44.922,104.492,0
1539545100.658,34.180,-969.238,-591.797,57.129,107.910,0
1539545100.662,42.480,-969.238,-792.480,70.312,19.043,0
1539545100.666,37.109,-969.238,-889.160,77.637,8.301,0
1539545100.670,36.133,-969.238,-770.996,71.289,62.988,0
1539545100.674,42.969,-969.238,-761.719,54.688,81.543,0
1539545100.678,51.270,-969.238,-931.152,47.852,-7.812,0
1539545100.682,50.781,-969.238,-938.965,53.711,-47.852,0
1539545100.686,31.738,-969.238,-693.359,46.875,56.152,0
1539545100.689,23.438,-969.238,-581.055,39.551,95.215,0
1539545100.693,27.344,-969.238,-764.160,45.898,29.297,0
1539545100.697,34.180,-969.238,-798.340,51.758,-2.930,0
1539545100.701,27.832,-969.238,-581.055,41.992,82.520,0
1539545100.705,27.832,-969.238,-542.480,41.016,141.602,0
1539545100.709,39.551,-969.238,-727.539,56.152,76.172,0
1539545100.713,37.598,-969.238,-806.641,66.895,0.000,0
1539545100.717,30.273,-969.238,-727.051,70.312,25.879,0
1539545100.721,37.598,-969.238,-801.758,71.289,90.820,0
1539545100.725,39.062,-969.238,-941.406,58.594,93.262,0
1539545100.729,28.320,-969.238,-900.879,43.945,18.066,0
1539545100.732,30.762,-969.238,-759.766,34.180,16.602,0
1539545100.736,33.691,-969.238,-768.555,40.527,77.148,0
1539545100.740,27.832,-969.238,-958.496,47.852,70.801,0
1539545100.744,25.879,-969.238,-916.016,40.527,19.043,0
1539545100.748,26.367,-969.238,-802.734,36.621,1.465,0
1539545100.752,26.367,-969.238,-834.473,36.621,55.664,0
1539545100.756,30.273,-969.238,-859.863,37.598,78.125,0
1539545100.760,32.715,-969.238,-828.125,41.504,36.133,0
1539545100.764,28.320,-969.238,-862.793,41.016,-0.977,0
1539545100.768,26.367,-969.238,-920.898,35.645,35.645,0
1539545100.772,20.996,-969.238,-971.191,28.809,75.684,0
1539545100.775,18.555,-969.238,-868.652,40.039,53.223,0
1539545100.779,32.227,-969.238,-879.395,62.012,-8.789,0
1539545100.783,31.250,-969.238,-993.164,62.012,-3.906,0
1539545100.787,21.973,-969.238,-861.816,46.387,77.148,0
1539545100.791,30.762,-969.238,-719.727,28.809,75.684,0
1539545100.795,28.320,-969.238,-808.105,29.785,4.883,0
1539545100.799,22.461,-969.238,-920.410,33.691,-10.254,0
1539545100.803,15.625,-969.238,-810.547,26.367,51.270,0
1539545100.807,9.766,-969.238,-680.664,27.344,88.379,0
1539545100.811,20.020,-969.238,-817.383,37.598,14.160,0
1539545100.814,27.344,-969.238,-973.145,43.945,-39.551,0
1539545100.818,25.879,-969.238,-965.332,52.246,33.691,0
1539545100.822,20.020,-969.238,-810.547,52.246,91.309,0
1539545100.826,23.926,-969.238,-810.059,51.758,46.387,0
1539545100.830,36.133,-969.238,-985.840,47.852,-24.902,0
1539545100.834,34.668,-969.238,-830.566,31.250,34.180,0
1539545100.838,31.738,-969.238,-687.500,40.039,105.957,0
1539545100.842,44.434,-969.238,-869.629,60.547,46.387,0
1539545100.846,60.547,-969.238,-995.117,70.801,-26.855,0
1539545100.850,49.316,-969.238,-883.789,53.223,14.160,0
1539545100.854,19.531,-969.238,-751.465,37.598,84.961,0
1539545100.857,13.672,-969.238,-835.938,31.250,66.895,0
1539545100.861,19.043,-969.238,-962.402,26.855,-2.441,0
1539545100.865,6.836,-969.238,-989.258,32.715,-28.809,0
1539545100.869,-7.324,-969.238,-862.793,27.344,36.133,0
1539545100.873,0.000,-969.238,-839.844,26.367,73.730,0
1539545100.877,4.395,-969.238,-997.559,18.066,-4.883,0
1539545100.881,0.488,-969.238,-899.414,26.855,-32.227,0
1539545100.885,-4.883,-969.238,-709.473,31.738,62.988,0
1539545100.889,-3.906,-969.238,-681.641,22.949,127.930,0
1539545100.893,11.230,-969.238,-693.359,32.227,77.637,0
1539545100.897,18.555,-969.238,-805.664,28.320,-10.254,0
1539545100.900,19.043,-969.238,-876.465,25.879,11.719,0
1539545100.904,16.113,-969.238,-721.191,33.203,86.914,0
1539545100.908,12.695,-969.238,-762.695,43.945,83.008,0
1539545100.912,17.578,-969.238,-898.438,46.875,6.348,0
1539545100.916,31.250,-969.238,-861.328,35.156,0.000,0
1539545100.920,13.184,-969.238,-949.707,27.344,51.758,0
1539545100.924,10.742,-969.238,-857.910,34.180,68.359,0
1539545100.928,26.855,-969.238,-784.180,50.293,12.695,0
1539545100.932,23.438,-969.238,-914.551,50.293,6.348,0
1539545100.936,21.973,-969.238,-836.914,40.527,99.609,0
1539545100.939,15.625,-969.238,-753.418,53.711,113.281,0
1539545100.943,21.973,-969.238,-872.559,61.523,43.457,0
1539545100.947,34.668,-969.238,-972.168,51.270,-2.441,0
1539545100.951,30.762,-969.238,-872.070,44.922,64.941,0
1539545100.955,28.320,-969.238,-858.887,35.156,117.188,0
1539545100.959,35.156,-969.238,-955.566,40.527,63.477,0
1539545100.963,39.062,-969.238,-988.281,53.711,-31.250,0
1539545100.967,22.949,-969.238,-883.301,53.223,3.418,0
1539545100.971,10.254,-969.238,-627.441,43.457,124.023,0
1539545100.975,19.043,-969.238,-634.766,38.574,103.027,0
1539545100.979,23.438,-969.238,-821.289,31.250,25.879,0
1539545100.982,17.090,-969.238,-798.828,22.949,19.531,0
1539545100.986,18.555,-969.238,-626.465,64.941,79.590,0
1539545100.990,34.180,-969.238,-705.078,82.031,91.309,0
1539545100.994,35.156,-969.238,-891.602,187.012,15.137,0
1539545100.998,21.973,-969.238,-842.285,221.191,-20.508,0
1539545101.002,12.695,-969.238,-866.211,146.973,37.598,0
1539545101.006,22.949,-969.238,-940.430,152.832,84.473,0
1539545101.010,33.691,-969.238,-958.984,252.441,13.184,0
1539545101.014,27.344,-969.238,-988.281,399.414,-47.363,0
1539545101.018,17.090,-969.238,-795.898,353.516,43.457,0
1539545101.022,13.672,-969.238,-769.043,127.930,88.379,0
1539545101.025,23.438,-969.238,-859.863,369.141,46.387,0
1539545101.029,25.391,-969.238,-756.348,812.988,0.000,0
1539545101.033,21.484,-969.238,-656.250,748.047,26.367,0
1539545101.037,35.156,-969.238,-757.812,532.227,76.660,0
1539545101.041,39.551,-969.238,-812.012,270.508,82.031,0
1539545101.045,30.762,-969.238,-780.273,26.367,4.395,0
1539545101.049,35.645,-969.238,-944.824,-117.188,-33.691,0
1539545101.053,43.945,-969.238,-983.398,-102.051,25.391,0
1539545101.057,40.039,-969.238,-926.270,-112.793,36.621,0
1539545101.061,43.945,-969.238,-854.980,-144.043,3.906,0
1539545101.064,39.551,-969.238,-811.035,-109.375,-4.395,0
1539545101.068,35.645,-969.238,-831.055,-62.988,42.969,0
1539545101.072,39.062,-969.238,-865.723,-103.027,68.848,0
1539545101.076,37.109,-969.238,-790.527,-111.328,45.898,0
1539545101.080,47.363,-969.238,-821.289,-91.797,-0.977,0
1539545101.084,46.387,-969.238,-818.848,-84.473,35.645,0
1539545101.088,28.320,-969.238,-636.719,-92.285,109.863,0
1539545101.092,31.250,-969.238,-612.793,-77.148,93.262,0
1539545101.096,35.645,-969.238,-844.238,-61.523,7.812,0
1539545101.100,32.227,-969.238,-994.141,-62.012,-19.043,0
1539545101.104,34.668,-969.238,-814.453,-57.129,45.898,0
1539545101.107,28.809,-969.238,-600.098,-45.898,82.031,0
1539545101.111,27.344,-969.238,-790.527,-36.133,5.371,0
1539545101.115,25.879,-969.238,-863.770,-25.391,-12.207,0
1539545101.119,24.414,-969.238,-591.309,-35.645,85.938,0
1539545101.123,19.531,-969.238,-497.070,-61.035,117.676,0
1539545101.127,28.320,-969.238,-709.961,-54.688,41.504,0
1539545101.131,42.480,-969.238,-846.191,-42.480,-2.441,0
1539545101.135,39.551,-969.238,-658.203,-25.879,46.875,0
1539545101.139,31.738,-969.238,-531.250,-8.789,97.168,0
1539545101.143,34.668,-969.238,-760.742,-12.207,33.691,0
1539545101.147,46.875,-969.238,-966.797,-8.789,-33.203,0
1539545101.150,38.086,-969.238,-763.184,2.930,15.625,0
1539545101.154,42.969,-969.238,-563.477,14.160,75.684,0
1539545101.158,49.805,-969.238,-764.648,10.254,45.410,0
1539545101.162,38.574,-969.238,-908.203,-9.766,-28.320,0
1539545101.166,46.387,-969.238,-631.348,10.254,2.930,0
1539545101.170,50.781,-969.238,-540.527,32.715,52.246,0
1539545101.174,27.344,-969.238,-582.031,20.996,63.965,0
1539545101.178,19.043,-969.238,-605.469,6.348,11.230,0
1539545101.182,30.762,-969.238,-550.781,20.996,1.465,0
1539545101.186,40.039,-969.238,-556.152,39.551,64.453,0
1539545101.189,26.367,-969.238,-689.453,38.086,80.078,0
1539545101.193,36.133,-969.238,-794.922,73.730,6.836,0
1539545101.197,40.527,-969.238,-689.453,127.930,-34.668,0
1539545101.201,26.855,-969.238,-541.016,116.699,42.969,0
1539545101.205,30.762,-969.238,-738.281,43.945,65.430,0
1539545101.209,29.297,-969.238,-671.387,32.227,19.043,0
1539545101.213,28.320,-969.238,-536.621,53.711,-22.949,0
1539545101.217,22.949,-969.238,-613.281,54.688,-7.324,0
1539545101.221,19.043,-969.238,-520.020,40.039,65.430,0
1539545101.225,22.461,-969.238,-408.691,21.973,62.500,0
1539545101.229,24.902,-969.238,-512.207,17.090,-11.230,0
1539545101.232,35.156,-969.238,-547.852,20.020,6.836,0
1539545101.236,38.574,-969.238,-603.027,22.949,48.340,0
1539545101.240,24.414,-969.238,-625.488,13.184,48.340,0
1539545101.244,32.227,-969.238,-638.672,38.086,3.418,0
1539545101.248,41.016,-969.238,-817.383,96.680,-37.598,0
1539545101.252,35.645,-969.238,-746.582,63.477,6.836,0
1539545101.256,21.484,-969.238,-355.469,13.672,77.637,0
1539545101.260,19.043,-969.238,-378.906,52.734,33.203,0
1539545101.264,39.551,-969.238,-621.582,111.816,-53.711,0
1539545101.268,46.875,-969.238,-447.266,131.348,24.902,0
1539545101.272,28.320,-969.238,-223.633,77.148,112.793,0
1539545101.275,23.926,-969.238,-317.871,60.059,84.961,0
1539545101.279,30.762,-969.238,-459.961,30.762,20.020,0
1539545101.283,30.762,-969.238,-511.230,69.336,16.113,0
1539545101.287,30.762,-969.238,-443.359,282.227,86.426,0
1539545101.291,30.273,-969.238,-429.688,248.047,74.707,0
1539545101.295,35.156,-969.238,-770.020,79.590,-35.645,0
1539545101.299,29.297,-969.238,-603.027,74.219,-6.348,0
1539545101.303,26.367,-969.238,-357.422,162.109,62.988,0
1539545101.307,23.926,-969.238,-436.523,179.199,76.660,0
1539545101.311,26.367,-969.238,-463.379,312.988,35.645,0
1539545101.314,39.551,-969.238,-430.176,333.496,-5.859,0
1539545101.318,44.922,-969.238,-329.590,16.113,72.754,0
1539545101.322,39.551,-969.238,-401.855,-73.242,116.211,0
1539545101.326,41.992,-969.238,-537.598,-50.781,60.547,0
1539545101.330,45.410,-969.238,-701.172,-26.367,15.625,0
1539545101.334,36.133,-969.238,-633.301,-29.785,65.918,0
1539545101.338,39.062,-969.238,-705.078,-42.480,90.820,0
1539545101.342,32.227,-969.238,-922.852,-43.457,36.621,0
1539545101.346,26.367,-969.238,-740.723,-26.367,-8.789,0
1539545101.350,42.480,-969.238,-622.070,0.488,16.602,0
1539545101.354,43.945,-969.238,-601.562,8.789,72.266,0
1539545101.357,26.367,-969.727,-612.305,8.301,61.523,0
1539545101.361,29.297,-966.309,-720.703,-10.254,-15.137,0
1539545101.365,33.203,-972.168,-707.031,-25.879,-18.066,0
1539545101.369,25.391,-968.262,-568.359,-21.484,79.590,0
1539545101.373,16.113,-896.484,-433.105,-19.043,129.883,0
1539545101.377,16.113,-926.758,-674.805,-13.184,24.902,0
1539545101.381,14.160,-977.539,-937.988,29.297,-67.871,0
1539545101.385,-0.977,-974.609,-940.918,12.207,-8.301,0
1539545101.389,-16.113,-776.855,-672.852,-50.781,73.730,0
1539545101.393,-12.207,-588.867,-480.957,-78.125,52.734,0
1539545101.397,8.301,-766.113,-736.328,-70.312,-32.227,0
1539545101.400,10.742,-776.367,-793.457,-38.574,-27.832,0
1539545101.404,5.371,-525.879,-568.848,-19.531,41.992,0
1539545101.408,4.883,-471.680,-539.062,-24.902,30.273,0
1539545101.412,-4.395,-592.773,-655.273,-40.039,-34.180,0
1539545101.416,4.883,-645.996,-649.414,-42.969,-23.926,0
1539545101.420,9.277,-520.508,-481.445,-44.434,25.391,0
1539545101.424,9.766,-485.352,-381.836,-41.016,42.969,0
1539545101.428,14.648,-782.715,-607.910,-24.414,-23.926,0
1539545101.432,0.488,-824.219,-635.254,-11.719,-75.195,0
1539545101.436,-16.113,-357.910,-122.070,-6.836,26.367,0
1539545101.439,-11.230,-223.633,103.516,-0.488,68.848,0
1539545101.443,-6.348,-441.406,-41.016,2.930,-8.789,0
1539545101.447,0.488,-477.539,-29.297,-3.906,-58.105,0
1539545101.451,2.441,-265.625,260.254,-6.348,9.766,0
1539545101.455,7.324,-287.109,330.566,13.672,41.504,0
1539545101.459,4.883,-421.387,244.141,15.625,0.000,0
1539545101.463,5.859,-348.633,345.215,1.953,-27.832,0
1539545101.467,-1.953,-306.641,452.148,-7.324,-26.367,0
1539545101.471,12.207,-500.000,371.094,2.930,9.277,0
1539545101.475,35.156,-860.352,65.918,28.320,-18.066,0
1539545101.479,13.184,-770.020,130.371,26.367,-66.406,0
1539545101.482,19.043,-458.496,439.453,19.043,-34.668,0
1539545101.486,35.156,-585.938,352.051,22.949,2.441,0
1539545101.490,48.340,-682.617,257.812,50.781,14.648,0
1539545101.494,52.246,-662.109,235.352,37.598,-42.480,0
1539545101.498,36.133,-746.582,165.039,61.035,-84.473,0
1539545101.502,46.387,-824.219,148.438,122.559,-27.832,0
1539545101.506,43.457,-858.887,159.668,97.656,6.348,0
1539545101.510,29.297,-812.988,224.121,51.758,-19.043,0
1539545101.514,44.434,-895.020,161.621,39.062,-76.660,0
1539545101.518,53.711,-964.844,89.355,55.176,-47.363,0
1539545101.522,57.129,-969.727,141.113,48.340,29.785,0
1539545101.525,48.340,-962.891,228.027,35.156,-1.465,0
1539545101.529,45.898,-968.750,232.422,34.180,-71.289,0
1539545101.533,62.012,-969.727,-14.160,98.633,-72.754,0
1539545101.537,38.574,-968.750,-35.645,173.340,-19.531,0
1539545101.541,17.090,-969.238,273.926,136.230,33.203,0
1539545101.545,34.180,-969.238,129.395,59.570,-26.367,0
1539545101.549,33.691,-969.238,-31.250,45.898,-37.598,1
1539545101.553,19.043,-969.238,53.223,10.254,40.039,0
1539545101.557,9.277,-969.238,46.875,31.250,59.082,0
1539545101.561,13.184,-969.238,-135.254,684.570,-0.977,0
1539545101.564,26.855,-967.773,-399.414,676.270,-51.758,0
1539545101.568,30.273,-974.121,-430.176,-7.324,21.484,0
1539545101.572,21.973,-944.824,-288.086,349.609,69.336,0
1539545101.576,20.996,-939.453,-442.383,309.082,13.184,0
1539545101.580,27.832,-979.004,-713.379,193.359,-54.199,0
1539545101.584,35.645,-946.289,-517.090,544.922,21.973,0
1539545101.588,34.180,-935.059,-487.793,254.395,108.398,0
1539545101.592,22.461,-972.168,-827.637,174.316,5.371,0
1539545101.596,25.391,-969.238,-987.793,625.488,-94.727,0
1539545101.600,35.156,-968.262,-958.496,622.070,-23.926,0
1539545101.604,16.113,-969.238,-968.262,107.422,60.547,0
1539545101.607,15.137,-969.238,-969.727,-115.234,59.082,0
1539545101.611,24.902,-969.238,-969.238,-155.762,-4.395,0
1539545101.615,17.578,-969.238,-969.238,-171.387,-17.578,0
1539545101.619,7.812,-969.238,-969.238,-180.176,52.246,0
1539545101.623,15.625,-969.238,-969.238,-98.633,52.246,0
1539545101.627,39.062,-969.238,-969.238,-107.910,-36.621,0
1539545101.631,32.715,-969.238,-969.238,374.512,-56.152,0
1539545101.635,20.508,-969.238,-969.238,-978.027,32.227,0
1539545101.639,20.996,-969.238,-969.238,994.629,70.801,0
1539545101.643,7.324,-969.238,-969.238,984.375,-0.977,0
1539545101.647,-1.465,-969.238,-969.238,-996.582,-44.922,0
1539545101.650,21.484,-969.238,-969.238,999.512,-12.207,0
1539545101.654,35.156,-969.238,-969.238,999.512,30.762,0
1539545101.658,29.785,-969.238,-969.238,999.512,33.203,0
1539545101.662,26.855,-969.238,-969.238,999.512,-19.043,0
1539545101.666,41.504,-969.238,-969.238,999.512,-22.461,0
1539545101.670,39.551,-969.238,-969.238,999.512,39.551,0
1539545101.674,27.832,-969.238,-969.238,999.512,52.734,0
1539545101.678,32.715,-969.238,-968.750,999.512,-3.906,0
1539545101.682,30.762,-969.238,-961.914,-996.094,-34.180,0
1539545101.686,24.414,-969.238,-985.352,933.594,-7.324,0
1539545101.689,20.508,-969.238,-863.281,-867.188,61.523,0
1539545101.693,20.020,-969.238,-672.852,319.336,62.500,0
1539545101.697,36.621,-969.238,-762.207,-991.211,7.324,0
1539545101.701,53.223,-968.750,-664.062,-971.191,22.949,0
1539545101.705,59.082,-969.238,-516.602,-934.082,56.152,0
1539545101.709,62.988,-964.844,-508.789,-978.516,30.762,0
1539545101.713,58.594,-970.703,-675.781,-969.238,-59.570,0
1539545101.717,47.852,-949.219,-558.594,-969.238,-52.246,0
1539545101.721,40.527,-780.273,39.551,-969.238,62.012,0
1539545101.725,45.898,-666.992,274.902,-969.238,79.102,0
1539545101.729,51.758,-886.230,129.395,-969.238,-35.156,0
1539545101.732,46.387,-856.934,244.629,-969.238,-49.316,0
1539545101.736,32.227,-576.172,583.496,-969.238,67.383,0
1539545101.740,44.434,-644.043,590.820,-969.238,95.703,0
1539545101.744,62.500,-881.836,381.836,-969.238,16.602,0
1539545101.748,57.617,-773.926,421.875,-969.238,-24.902,0
1539545101.752,47.852,-647.949,521.973,-969.238,18.066,0
1539545101.756,42.969,-635.742,599.609,-969.238,52.734,0
1539545101.760,44.434,-776.367,570.312,-969.238,-6.836,0
1539545101.764,43.457,-721.680,731.445,-969.238,-41.992,0
1539545101.768,47.852,-434.082,996.094,-969.238,31.250,0
1539545101.772,50.781,-441.406,977.051,-969.238,76.660,0
1539545101.775,43.945,-534.668,956.543,-969.238,44.922,0
1539545101.779,48.340,-495.605,927.734,-969.238,-6.836,0
1539545101.783,59.570,-459.961,928.223,-969.238,12.207,0
1539545101.787,52.734,-503.906,900.391,-969.238,74.219,0
1539545101.791,40.039,-520.508,885.254,-969.238,92.285,0
1539545101.795,56.152,-599.609,770.996,-969.238,8.789,0
1539545101.799,81.543,-805.176,593.750,-969.238,-24.414,0
1539545101.803,60.059,-911.621,429.688,-969.238,41.016,0
1539545101.807,27.344,-894.531,358.887,-969.727,51.270,0
1539545101.811,21.973,-737.793,528.809,-966.797,10.254,0
1539545101.814,29.785,-708.008,520.020,-972.168,-21.484,0
1539545101.818,28.320,-719.238,491.699,-953.125,40.527,0
1539545101.822,21.484,-736.328,447.266,-878.906,84.473,0
1539545101.826,20.020,-672.363,443.359,-837.891,48.340,0
1539545101.830,8.789,-683.105,377.441,-813.965,-0.488,0
1539545101.834,-3.418,-788.086,251.953,-762.695,33.203,0
1539545101.838,1.465,-635.254,325.684,-709.961,110.352,0
1539545101.842,6.348,-612.793,274.902,-673.828,75.195,0
1539545101.846,27.344,-881.348,-97.656,-660.156,-20.508,0
1539545101.850,37.109,-1000.000,-397.949,-624.512,-17.578,0
1539545101.854,17.090,-728.516,-134.766,-591.797,91.797,0
1539545101.857,13.672,-476.562,110.840,-566.406,133.789,0
1539545101.861,15.137,-765.137,-247.070,-535.645,23.438,0
1539545101.865,4.883,-908.691,-441.895,-518.555,-13.672,0
1539545101.869,-0.977,-671.387,-252.441,-491.211,77.148,0
1539545101.873,9.277,-612.793,-263.672,-451.660,88.379,0
1539545101.877,25.879,-743.164,-472.168,-413.574,28.320,0
1539545101.881,25.391,-821.777,-625.977,-368.652,-4.395,0
1539545101.885,18.066,-562.988,-458.496,-350.586,58.594,0
1539545101.889,29.297,-335.449,-300.293,-346.680,133.301,0
1539545101.893,27.832,-702.637,-678.711,-328.125,54.688,0
1539545101.897,22.461,-896.484,-960.938,-316.406,-20.996,0
1539545101.900,13.672,-492.676,-689.453,-314.941,54.688,0
1539545101.904,6.348,-135.254,-437.988,-303.711,152.832,0
1539545101.908,11.230,-85.449,-665.527,-278.320,125.488,0
1539545101.912,-1.953,191.895,-863.770,-277.344,25.879,0
1539545101.916,-1.953,807.617,-677.734,-290.039,14.160,0
1539545101.920,4.395,-992.188,-558.105,-274.902,88.867,0
1539545101.924,-9.277,987.793,-582.031,-249.512,112.793,0
1539545101.928,3.906,997.070,-694.336,-229.980,24.902,0
1539545101.932,5.371,-999.512,-628.906,-225.586,23.926,0
1539545101.936,-3.906,999.512,-568.359,-215.820,102.539,0
1539545101.939,4.395,999.512,-658.691,-204.590,133.789,0
1539545101.943,3.906,999.512,-763.672,-197.266,83.984,0
1539545101.947,1.465,999.512,-714.355,-174.316,40.527,0
1539545101.951,10.742,999.512,-619.141,-165.039,72.266,0
1539545101.955,18.066,999.512,-780.762,-150.879,83.496,0
1539545101.959,7.812,999.512,-633.789,-137.207,62.500,0
1539545101.963,10.742,999.512,-499.512,-131.348,-8.301,0
1539545101.967,10.742,999.512,-588.379,-128.906,-19.043,0
1539545101.971,3.906,999.512,-471.680,-119.629,52.246,0
1539545101.975,14.648,999.512,-316.895,-94.238,59.570,0
1539545101.979,18.066,999.512,-396.484,-95.703,-16.602,0
1539545101.982,17.090,999.512,-434.570,-108.398,-17.090,0
1539545101.986,18.066,999.512,-393.555,-86.426,68.848,0
1539545101.990,20.020,999.512,-346.191,-86.914,97.656,0
1539545101.994,22.949,999.512,-374.023,-83.008,25.391,0
1539545101.998,28.809,999.512,-636.230,-52.734,-40.039,0
1539545102.002,25.391,999.512,-537.598,-40.039,20.996,0
1539545102.006,30.762,999.512,-129.883,-50.293,91.309,0
1539545102.010,37.598,999.512,-167.969,-54.199,34.668,0
1539545102.014,28.809,999.512,-311.035,-42.480,-29.785,0
1539545102.018,25.391,999.512,-158.691,-53.223,11.719,0
1539545102.022,23.926,999.512,51.758,-53.711,78.125,0
1539545102.025,31.250,999.512,-3.906,-30.762,56.641,0
1539545102.029,41.504,999.512,-208.496,-19.043,-35.645,0
1539545102.033,36.133,999.512,-222.168,-14.648,-29.297,0
1539545102.037,33.691,999.512,-145.996,-12.695,35.156,0
1539545102.041,39.551,999.512,-102.051,-10.742,27.832,0
1539545102.045,54.199,999.512,-355.469,3.906,-77.637,0
1539545102.049,51.270,999.512,-186.035,1.953,-79.590,0
1539545102.053,35.156,999.512,191.406,-8.301,27.344,0
1539545102.057,39.551,999.512,128.906,-4.395,37.598,0
1539545102.061,42.480,999.512,57.617,-2.441,-33.203,0
1539545102.064,32.227,999.512,117.676,1.953,-59.570,0
1539545102.068,30.762,999.512,248.047,7.324,23.438,0
1539545102.072,36.621,999.512,239.746,14.160,80.078,0
1539545102.076,39.062,999.512,92.285,22.461,13.184,0
1539545102.080,40.039,999.512,-89.355,21.973,-45.898,0
1539545102.084,34.668,999.512,7.812,20.996,8.301,0
1539545102.088,45.410,999.512,1.953,39.062,48.340,0
1539545102.092,48.828,999.512,-146.484,44.434,9.277,0
1539545102.096,37.598,999.512,76.172,48.340,-33.691,0
1539545102.100,42.969,999.512,157.227,62.500,-30.273,0
1539545102.104,46.875,999.512,159.668,50.293,31.250,0
1539545102.107,57.617,999.512,181.641,38.086,48.828,0
1539545102.111,59.570,999.512,15.137,47.852,-20.508,0
1539545102.115,59.570,999.512,-103.027,39.062,-36.133,0
1539545102.119,73.730,999.512,-5.371,32.715,61.035,0
1539545102.123,66.895,999.512,16.602,42.480,93.262,0
1539545102.127,64.453,999.512,-236.328,47.852,5.859,0
1539545102.131,66.406,999.512,-500.977,53.711,-61.035,0
1539545102.135,49.805,999.512,-631.348,52.246,-22.461,0
1539545102.139,35.156,999.512,-406.738,40.039,66.406,0
1539545102.143,38.574,999.512,-315.430,33.203,38.086,0
1539545102.147,54.199,999.512,-685.059,47.852,-48.828,0
1539545102.150,60.547,999.512,-814.453,59.082,-26.367,0
1539545102.154,39.062,999.512,-699.219,47.363,45.410,0
1539545102.158,29.297,999.512,-805.664,42.480,41.016,0
1539545102.162,34.180,999.512,-958.496,44.922,-59.082,0
1539545102.166,45.410,999.512,-972.168,46.875,-70.312,0
1539545102.170,51.270,999.512,-964.355,54.199,13.672,0
1539545102.174,45.898,999.512,-970.215,53.711,19.043,0
1539545102.178,52.734,999.512,-969.238,56.152,-75.195,0
1539545102.182,53.711,999.512,-969.238,54.688,-97.656,0
1539545102.186,42.480,999.512,-969.238,42.969,-2.441,0
1539545102.189,40.527,999.512,-969.238,43.945,14.648,0
1539545102.193,39.551,999.512,-969.238,43.945,-52.246,0
1539545102.197,34.180,999.512,-969.238,42.969,-77.637,0
1539545102.201,34.180,999.512,-969.238,44.434,-14.648,0
1539545102.205,36.621,999.512,-969.238,48.828,12.695,0
1539545102.209,48.340,999.512,-969.238,69.336,-37.109,0
1539545102.213,53.223,999.512,-969.238,76.660,-104.492,0
1539545102.217,41.016,999.512,-969.238,60.547,-67.383,0
1539545102.221,35.645,999.512,-969.238,61.523,-1.953,0
1539545102.225,32.715,999.512,-969.238,60.547,-26.367,0
1539545102.229,28.320,999.512,-969.238,49.805,-73.242,0
1539545102.232,28.809,999.512,-969.238,48.340,-57.129,0
1539545102.236,25.879,999.512,-969.238,53.711,-3.906,0
1539545102.240,25.391,999.512,-969.238,67.383,-4.395,0
1539545102.244,28.809,999.512,-969.727,65.918,-67.383,0
1539545102.248,38.574,999.512,-962.891,57.617,-98.145,0
1539545102.252,39.551,999.512,-975.098,50.781,-43.945,0
1539545102.256,33.691,999.512,-920.898,52.734,17.578,0
1539545102.260,34.180,999.512,-732.422,50.781,9.277,0
1539545102.264,31.250,999.512,-573.730,46.875,-38.574,0
1539545102.268,33.691,999.512,-629.395,53.711,-33.691,0
1539545102.272,34.668,999.512,-471.191,58.105,33.691,0
1539545102.275,32.227,999.512,-110.352,59.570,39.551,0
1539545102.279,37.598,999.512,-33.203,49.316,-42.969,0
1539545102.283,47.852,999.512,-125.000,36.133,-49.805,0
1539545102.287,54.199,999.512,113.770,29.785,43.457,0
1539545102.291,54.688,999.512,483.398,34.668,79.590,0
1539545102.295,56.152,999.512,366.211,41.016,-22.949,0
1539545102.299,56.152,999.512,337.402,47.852,-44.434,0
1539545102.303,52.734,999.512,624.023,64.453,50.293,0
1539545102.307,51.270,999.512,784.180,83.008,69.824,0
1539545102.311,52.734,999.512,689.453,80.566,-10.742,0
1539545102.314,51.270,999.512,556.641,69.824,-50.293,0
1539545102.318,48.340,999.512,696.289,64.941,4.395,0
1539545102.322,45.898,999.512,967.773,64.453,64.453,0
1539545102.326,58.105,999.512,953.125,71.777,32.715,0
1539545102.330,67.871,999.512,722.168,69.824,-44.922,0
1539545102.334,58.105,999.512,886.719,53.711,4.395,0
1539545102.338,45.410,999.512,-955.566,54.199,68.848,0
1539545102.342,45.410,999.512,917.969,63.965,8.789,0
1539545102.346,57.129,999.512,895.996,67.871,-76.660,0
1539545102.350,58.105,999.512,999.512,69.336,-44.922,0
1539545102.354,58.594,999.512,998.047,72.266,30.762,0
1539545102.357,62.012,999.512,-994.629,72.754,39.062,0
1539545102.361,62.500,999.512,874.023,64.453,-43.945,0
1539545102.365,69.336,999.512,796.875,60.547,-57.617,0
1539545102.369,63.477,999.512,-984.375,62.988,40.527,0
1539545102.373,63.965,999.512,824.707,77.637,24.414,0
1539545102.377,71.289,999.512,572.266,89.355,-54.199,0
1539545102.381,64.941,999.512,813.965,82.520,-41.992,0
1539545102.385,59.082,999.512,923.828,65.918,15.137,0
1539545102.389,61.035,999.512,839.844,61.523,62.500,0
1539545102.393,66.895,999.512,752.930,67.383,31.738,0
1539545102.397,65.918,999.512,664.062,74.707,-19.043,0
1539545102.400,67.871,999.512,536.133,92.773,15.137,0
1539545102.404,71.289,999.512,490.234,101.562,47.363,0
1539545102.408,71.777,999.512,370.117,89.844,11.230,0
1539545102.412,67.383,999.512,246.582,62.500,-40.527,0
1539545102.416,63.965,999.512,287.598,54.199,-20.996,0
1539545102.420,65.918,999.512,90.820,62.988,32.715,0
1539545102.424,62.012,999.512,143.066,59.082,54.688,0
1539545102.428,63.965,999.512,252.930,76.172,24.414,0
1539545102.432,62.500,999.512,-8.301,96.680,-27.344,0
1539545102.436,53.711,999.512,-21.973,78.613,28.320,0
1539545102.439,58.105,999.512,150.879,53.223,89.355,0
1539545102.443,66.406,999.512,-12.695,54.199,8.301,0
1539545102.447,68.848,999.512,-232.422,61.035,-56.641,0
1539545102.451,64.453,999.512,-212.402,62.988,-6.836,1
1539545102.455,62.012,999.512,-199.219,83.008,71.289,0
1539545102.459,67.871,999.512,-346.191,102.539,66.406,0
1539545102.463,78.125,999.512,-661.621,100.586,-16.602,0
1539545102.467,71.289,999.512,-839.355,78.613,-30.273,0
1539545102.471,59.570,999.512,-501.465,59.570,75.684,0
1539545102.475,60.547,999.512,-477.051,65.430,73.730,0
1539545102.479,66.406,999.512,-827.148,73.730,-26.367,0
1539545102.482,71.777,999.512,-854.492,79.590,-9.766,0
1539545102.486,58.594,999.512,-736.328,90.820,72.754,0
1539545102.490,51.758,999.512,-841.797,74.219,94.238,0
1539545102.494,57.617,999.512,-966.797,50.781,25.391,0
1539545102.498,57.129,999.512,-970.215,40.039,-13.672,0
1539545102.502,47.363,999.512,-965.332,42.480,31.738,0
1539545102.506,44.922,999.512,-970.215,44.922,70.801,0
1539545102.510,45.410,999.512,-969.238,50.781,20.996,0
1539545102.514,44.922,999.512,-969.238,58.105,-31.250,0
1539545102.518,40.527,999.512,-969.238,62.988,21.973,0
1539545102.522,36.621,999.512,-969.238,78.125,88.867,0
1539545102.525,42.480,999.512,-969.238,71.777,77.637,0
1539545102.529,37.109,999.512,-969.238,39.551,3.906,0
1539545102.533,35.645,999.512,-969.238,36.133,27.344,0
1539545102.537,39.062,999.512,-969.238,50.293,93.750,0
1539545102.541,41.016,999.512,-969.238,58.105,62.012,0
1539545102.545,44.922,999.512,-969.238,60.059,-12.695,0
1539545102.549,39.551,999.512,-969.238,52.734,6.836,0
1539545102.553,40.527,999.512,-969.238,49.316,44.434,0
1539545102.557,45.410,999.512,-969.238,56.641,58.594,0
1539545102.561,39.062,999.512,-969.238,53.711,32.715,0
1539545102.564,35.156,999.512,-969.238,46.875,-6.348,0
1539545102.568,36.621,999.512,-969.238,48.828,75.684,0
1539545102.572,36.621,999.512,-969.238,44.922,125.000,0
1539545102.576,33.203,999.512,-969.238,47.363,63.965,0
1539545102.580,36.621,999.512,-969.238,48.828,22.949,0
1539545102.584,43.457,999.512,-969.238,40.039,44.922,0
1539545102.588,38.086,999.512,-969.238,55.176,101.562,0
1539545102.592,41.992,999.512,-968.750,59.570,108.398,0
1539545102.596,52.734,999.512,-961.426,55.176,33.203,0
1539545102.600,58.105,999.512,-985.352,62.012,18.555,0
1539545102.604,41.504,999.512,-868.164,54.688,100.586,0
1539545102.607,33.691,999.512,-640.625,58.594,143.555,0
1539545102.611,51.270,999.512,-786.133,77.148,57.617,0
1539545102.615,51.270,999.512,-816.895,61.035,27.832,0
1539545102.619,40.527,999.512,-551.270,43.457,95.215,0
1539545102.623,31.738,999.512,-401.855,55.176,137.207,0
1539545102.627,37.109,999.512,-535.645,70.312,75.684,0
1539545102.631,42.969,999.512,-730.957,75.195,-6.348,0
1539545102.635,36.621,999.512,-489.258,56.641,57.617,0
1539545102.639,39.062,999.512,-215.820,57.617,132.324,0
1539545102.643,45.410,999.512,-486.328,69.336,68.359,0
1539545102.647,45.898,999.512,-625.000,57.129,-1.953,0
1539545102.650,37.598,999.512,-184.570,38.086,42.480,0
1539545102.654,38.086,999.512,89.844,34.180,111.816,0
1539545102.658,47.363,999.512,65.918,48.340,86.426,0
1539545102.662,43.945,999.512,-13.184,58.105,-17.090,0
1539545102.666,34.668,999.512,143.555,62.988,-16.602,0
1539545102.670,39.062,999.512,327.148,73.242,61.035,0
1539545102.674,44.434,999.512,335.449,77.637,65.918,0
1539545102.678,41.992,999.512,255.371,68.359,-7.324,0
1539545102.682,39.062,999.512,384.766,55.664,-11.230,0
1539545102.686,39.062,999.512,616.211,61.523,63.477,0
1539545102.689,53.223,999.512,573.242,78.125,66.406,0
1539545102.693,60.059,999.512,516.602,73.730,9.277,0
1539545102.697,33.203,999.512,522.461,50.293,-40.039,0
1539545102.701,25.879,999.512,599.121,53.223,0.000,0
1539545102.705,41.016,999.512,577.637,77.148,40.527,0
1539545102.709,36.133,999.512,803.223,71.289,46.875,0
1539545102.713,38.574,999.512,994.629,61.035,11.230,0
1539545102.717,41.504,999.512,912.598,44.922,-1.953,0
1539545102.721,31.250,999.512,939.941,29.297,83.984,0
1539545102.725,28.809,999.512,-989.258,32.715,91.797,0
1539545102.729,36.133,999.512,975.586,47.852,-11.230,0
1539545102.732,36.621,999.512,930.664,51.758,5.371,0
1539545102.736,36.621,999.512,939.453,49.316,84.961,0
1539545102.740,39.551,999.512,982.422,48.828,111.816,0
1539545102.744,40.527,999.512,989.746,55.664,55.664,0
1539545102.748,43.457,999.512,813.965,63.477,0.000,0
1539545102.752,41.016,999.512,817.383,59.570,53.711,0
1539545102.756,34.180,999.512,-984.863,54.199,122.070,0
1539545102.760,36.133,999.512,998.535,57.129,84.961,0
1539545102.764,42.480,999.512,990.723,53.711,-2.441,0
1539545102.768,40.527,999.512,999.023,51.270,19.531,0
1539545102.772,40.039,999.512,-1000.000,67.871,111.328,0
1539545102.775,50.781,999.512,999.023,83.008,70.801,0
1539545102.779,56.641,999.512,999.512,87.402,4.395,0
1539545102.783,56.641,999.512,998.047,87.402,42.480,0
1539545102.787,53.223,999.512,-999.023,80.566,94.238,0
1539545102.791,54.688,999.512,998.535,81.543,95.703,0
1539545102.795,62.012,999.512,977.051,91.797,-3.418,0
1539545102.799,53.711,999.512,991.699,81.543,-9.277,0
1539545102.803,47.852,999.512,-997.070,72.754,75.684,0
1539545102.807,49.805,999.512,997.559,56.152,89.355,0
1539545102.811,48.340,999.512,-1000.000,38.574,26.855,0
1539545102.814,44.434,999.512,999.512,55.176,-5.859,0
1539545102.818,47.852,999.512,999.512,71.777,69.336,0
1539545102.822,46.387,999.512,999.512,65.918,101.074,0
1539545102.826,52.246,999.512,999.512,56.152,60.547,0
1539545102.830,60.547,999.512,999.512,62.012,24.902,0
1539545102.834,46.875,999.512,999.512,61.035,73.730,0
1539545102.838,48.828,999.512,999.512,71.777,135.742,0
1539545102.842,52.734,999.512,999.512,81.055,116.211,0
1539545102.846,43.945,999.512,999.512,59.082,76.660,0
1539545102.850,45.410,999.512,999.512,43.457,88.867,0
1539545102.854,38.574,999.512,999.512,51.270,168.945,0
1539545102.857,41.992,999.512,999.512,61.523,205.566,0
1539545102.861,50.781,999.512,999.512,62.012,150.391,0
1539545102.865,43.457,999.512,999.512,72.754,142.090,0
1539545102.869,43.945,999.512,999.512,80.078,219.727,0
1539545102.873,39.062,999.512,999.512,80.078,249.023,0
1539545102.877,34.668,999.512,999.512,81.543,187.500,0
1539545102.881,48.340,999.512,999.512,82.520,143.066,0
1539545102.885,53.711,999.512,999.512,56.152,169.434,0
1539545102.889,46.387,999.512,999.512,30.762,258.789,0
1539545102.893,43.457,999.512,999.512,51.270,266.113,0
1539545102.897,49.316,999.512,999.512,65.430,193.359,0
1539545102.900,46.875,999.512,999.023,60.547,214.355,0
1539545102.904,43.457,999.512,999.512,61.523,295.410,0
1539545102.908,53.711,999.512,-999.023,64.941,308.594,0
1539545102.912,56.152,999.512,984.375,49.316,226.562,0
1539545102.916,40.039,999.512,985.840,49.805,217.773,0
1539545102.920,36.621,999.512,996.582,56.641,281.738,0
1539545102.924,44.434,999.512,941.406,42.480,291.016,0
1539545102.928,48.828,999.512,550.293,43.945,199.219,0
1539545102.932,46.387,999.512,401.367,53.223,171.387,0
1539545102.936,38.086,999.512,788.574,44.922,271.484,0
1539545102.939,38.574,999.512,880.371,43.945,308.594,0
1539545102.943,39.062,999.512,686.523,56.152,258.789,0
1539545102.947,38.574,999.512,620.117,54.688,221.191,0
1539545102.951,32.715,999.512,700.195,51.758,251.465,0
1539545102.955,27.832,999.512,662.109,66.895,287.598,0
1539545102.959,33.691,999.512,517.090,73.730,271.973,0
1539545102.963,32.227,999.512,357.910,66.895,194.336,0
1539545102.967,27.344,999.512,353.516,57.617,207.520,0
1539545102.971,31.250,999.512,275.879,50.781,281.738,0
1539545102.975,38.086,999.512,-85.938,59.082,259.277,0
1539545102.979,30.762,999.512,-194.336,48.828,182.617,0
1539545102.982,19.531,999.512,30.273,35.156,185.547,0
1539545102.986,24.414,999.512,16.602,43.945,243.652,0
1539545102.990,21.973,999.512,-69.824,50.781,265.625,0
1539545102.994,18.066,999.512,-81.055,49.316,223.145,0
1539545102.998,24.902,999.512,-174.316,51.270,186.035,0
1539545103.002,32.227,999.512,-286.621,57.129,211.426,0
1539545103.006,33.691,999.512,-289.551,67.383,256.348,0
1539545103.010,32.715,999.512,-359.375,71.777,200.195,0
1539545103.014,41.016,999.512,-445.801,66.406,148.926,0
1539545103.018,49.316,999.512,-626.953,77.148,192.871,0
1539545103.022,46.875,999.512,-733.887,76.660,229.492,0
1539545103.025,41.992,999.512,-559.082,49.805,210.938,0
1539545103.029,45.410,999.512,-690.430,52.246,127.441,0
1539545103.033,46.875,999.512,-914.551,67.383,108.398,0
1539545103.037,41.504,999.512,-860.840,50.293,187.500,0
1539545103.041,42.969,999.512,-816.406,36.133,197.266,0
1539545103.045,47.363,999.512,-963.379,52.246,95.703,0
1539545103.049,41.016,999.512,-973.633,63.965,63.965,0
1539545103.053,29.785,999.512,-964.355,63.965,135.742,0
1539545103.057,24.414,999.512,-970.215,58.105,147.461,0
1539545103.061,24.414,999.512,-969.238,49.805,81.055,0
1539545103.064,26.367,999.512,-969.238,51.758,21.973,0
1539545103.068,24.902,999.512,-969.238,52.734,76.172,0
1539545103.072,17.090,999.512,-969.238,58.594,136.230,0
1539545103.076,15.625,999.512,-969.238,65.918,62.988,0
1539545103.080,23.438,999.512,-969.238,72.266,-34.668,0
1539545103.084,14.160,999.512,-969.238,53.711,4.883,0
1539545103.088,15.137,999.512,-969.238,38.086,82.520,0
1539545103.092,21.973,999.512,-969.238,39.551,62.500,0
1539545103.096,20.020,999.512,-969.238,48.340,-21.973,0
1539545103.100,22.949,999.512,-969.238,53.711,-24.902,0
1539545103.104,24.414,999.512,-969.238,19.043,43.457,0
1539545103.107,19.043,999.512,-969.238,18.066,76.660,0
1539545103.111,23.926,999.512,-969.238,32.715,51.270,0
1539545103.115,28.320,999.512,-970.215,26.367,51.270,0
1539545103.119,18.066,999.512,-963.379,20.020,130.859,0
1539545103.123,22.949,999.512,-972.168,25.391,168.945,0
1539545103.127,26.367,999.512,-931.641,29.297,171.875,0
1539545103.131,23.438,999.512,-699.219,25.879,204.102,0
1539545103.135,30.762,999.512,-455.078,34.668,276.855,0
1539545103.139,33.203,999.512,-346.680,32.227,355.469,0
1539545103.143,34.668,999.512,-226.562,22.949,369.141,0
1539545103.147,35.156,999.512,-158.203,30.273,339.355,0
1539545103.150,31.738,999.512,-224.609,42.480,362.305,0
1539545103.154,27.344,999.512,-165.039,23.438,424.805,0
1539545103.158,27.832,999.512,-156.250,20.020,419.434,0
1539545103.162,25.879,999.512,-295.898,26.855,349.609,0
1539545103.166,21.973,999.512,-213.379,28.809,363.281,0
1539545103.170,26.855,999.512,-323.730,41.992,396.484,0
1539545103.174,20.020,999.512,-191.895,35.156,416.504,0
1539545103.178,24.414,999.512,-27.344,32.227,369.629,0
1539545103.182,35.156,999.512,-202.637,47.852,315.918,0
1539545103.186,28.320,999.512,-179.199,45.898,356.445,0
1539545103.189,35.156,999.512,-44.434,41.992,366.699,0
1539545103.193,41.016,999.512,-73.242,53.223,308.594,0
1539545103.197,27.832,999.512,-243.164,48.828,231.934,0
1539545103.201,17.578,999.512,-97.656,34.180,290.527,0
1539545103.205,11.719,999.512,-33.203,50.293,347.656,0
1539545103.209,13.672,999.512,-223.633,61.035,263.672,0
1539545103.213,20.996,999.512,-439.941,43.457,158.203,0
1539545103.217,25.879,999.512,-482.910,41.504,159.180,0
1539545103.221,20.508,999.512,-66.895,39.062,262.207,0
1539545103.225,23.926,999.512,-13.672,46.875,259.766,0
1539545103.229,35.156,999.512,-315.918,52.246,151.367,0
1539545103.232,34.180,999.512,-385.254,49.805,118.164,0
1539545103.236,23.926,999.512,-209.961,30.273,191.895,0
1539545103.240,26.855,999.512,-244.141,20.508,214.844,0
1539545103.244,30.273,999.512,-513.672,29.785,119.141,0
1539545103.248,20.508,999.512,-556.152,23.438,70.312,0
1539545103.252,25.879,999.512,-551.758,29.785,122.070,0
1539545103.256,28.320,999.512,-633.301,38.086,154.785,0
1539545103.260,28.320,999.512,-820.801,44.434,90.332,0
1539545103.264,27.832,999.512,-924.805,51.270,0.488,0
1539545103.268,20.020,999.512,-676.270,52.246,47.852,0
1539545103.272,24.414,999.512,-576.172,50.293,109.375,0
1539545103.275,33.203,999.512,-663.086,48.340,69.824,0
1539545103.279,37.109,999.512,-686.035,49.805,-1.465,0
1539545103.283,35.645,999.512,-640.137,47.852,14.160,0
1539545103.287,29.297,999.512,-634.766,54.688,80.078,0
1539545103.291,28.809,999.512,-671.387,55.176,81.055,0
1539545103.295,33.203,999.512,-710.449,41.504,10.254,0
1539545103.299,33.203,999.512,-900.391,35.156,-24.414,0
1539545103.303,36.621,999.512,-974.609,42.969,20.996,0
1539545103.307,32.715,999.512,-896.484,46.875,47.363,0
1539545103.311,32.227,999.512,-860.352,40.527,9.277,0
1539545103.314,41.992,999.512,-888.672,41.992,-44.922,0
1539545103.318,30.273,999.512,-834.473,48.828,-2.441,0
1539545103.322,30.762,999.512,-775.879,53.223,74.219,0
1539545103.326,41.992,999.512,-812.988,41.016,25.879,0
1539545103.330,42.480,999.512,-925.781,45.898,-66.406,0
1539545103.334,38.574,999.512,-927.734,57.129,-18.555,0
1539545103.338,31.738,999.512,-759.766,53.223,70.312,0
1539545103.342,29.785,999.512,-791.992,55.176,40.039,0
1539545103.346,33.203,999.512,-965.820,64.941,-102.539,0
1539545103.350,31.250,999.512,-979.980,65.430,-114.746,0
1539545103.354,24.902,999.512,-931.152,53.711,-2.930,0
1539545103.357,20.508,999.512,-792.969,60.547,64.941,0
1539545103.361,23.438,999.512,-857.422,63.965,-3.906,0
1539545103.365,22.949,999.512,-993.164,55.176,-71.777,0
1539545103.369,19.043,999.512,-903.320,41.992,12.207,0
1539545103.373,19.043,999.512,-877.441,47.852,39.551,0
1539545103.377,21.973,999.512,-958.496,53.223,-18.066,0
1539545103.381,26.367,999.512,-970.703,34.180,-64.941,0
1539545103.385,25.391,999.512,-968.262,18.555,-44.922,0
1539545103.389,24.414,999.512,-900.879,21.484,30.273,0
1539545103.393,32.227,999.512,-920.898,37.109,0.488,0
1539545103.397,24.902,999.512,-979.492,38.574,-90.332,0
1539545103.400,16.602,999.512,-970.215,42.969,-72.266,0
1539545103.404,25.879,999.512,-869.141,45.898,15.625,0
1539545103.408,22.461,999.512,-875.488,50.293,27.344,0
1539545103.412,27.344,999.512,-992.676,52.734,-50.781,0
1539545103.416,31.738,999.512,-913.574,39.551,-53.711,0
1539545103.420,30.762,999.512,-810.547,45.410,4.395,0
1539545103.424,31.250,999.512,-907.227,55.664,-18.066,0
1539545103.428,23.926,999.512,-994.141,57.129,-95.215,0
1539545103.432,23.438,999.512,-914.551,54.688,-97.656,0
1539545103.436,24.414,999.512,-836.426,50.293,-20.508,0
1539545103.439,20.020,999.512,-936.035,46.387,7.812,0
1539545103.443,21.484,999.512,-980.469,40.039,-62.988,0
1539545103.447,24.414,999.512,-962.402,36.133,-108.887,0
1539545103.451,21.973,999.512,-968.262,39.551,-49.805,0
1539545103.455,24.414,999.512,-976.562,42.480,-17.578,0
1539545103.459,23.926,999.512,-908.691,44.434,-18.066,0
1539545103.463,25.879,999.512,-856.445,41.992,-54.688,2
1539545103.467,31.250,999.512,-941.895,40.527,-72.266,0
1539545103.471,19.531,999.512,-879.395,37.598,-5.371,0
1539545103.475,15.625,999.512,-748.535,44.922,15.137,0
1539545103.479,22.949,999.512,-877.930,48.340,-77.148,0
1539545103.482,23.438,999.512,-971.191,32.227,-107.910,0
1539545103.486,21.484,999.512,-962.891,33.691,-39.062,0
1539545103.490,22.949,999.512,-970.215,34.668,-6.836,0
1539545103.494,21.973,999.512,-962.891,35.645,-58.594,0
1539545103.498,23.926,999.512,-977.051,32.227,-112.305,0
1539545103.502,18.555,999.512,-933.594,20.020,-56.641,0
1539545103.506,8.301,999.512,-771.973,20.508,25.879,0
1539545103.510,14.648,999.512,-778.809,27.832,-5.859,0
1539545103.514,14.160,999.512,-954.590,35.156,-80.566,0
1539545103.518,11.230,999.512,-887.207,35.156,-45.410,0
1539545103.522,13.184,999.512,-803.711,35.645,17.578,0
1539545103.525,19.043,999.512,-901.855,41.504,-17.090,0
1539545103.529,25.879,999.512,-963.379,42.969,-100.586,0
1539545103.533,19.531,999.512,-971.191,35.645,-99.609,0
1539545103.537,14.648,999.512,-968.262,33.203,-29.297,0
1539545103.541,15.137,999.512,-940.430,37.598,-11.719,0
1539545103.545,21.484,999.512,-972.656,40.527,-100.586,0
1539545103.549,17.090,999.512,-926.758,35.645,-118.652,0
1539545103.553,14.648,999.512,-796.387,39.062,-8.301,0
1539545103.557,19.531,999.512,-892.090,49.316,11.230,0
1539545103.561,18.555,999.512,-933.594,66.406,-45.898,0
1539545103.564,17.578,999.512,-862.793,59.082,-85.938,0
1539545103.568,18.066,999.512,-773.438,34.180,-39.062,0
1539545103.572,27.344,999.512,-795.898,37.598,5.371,0
1539545103.576,28.320,999.512,-862.305,37.598,-18.066,0
1539545103.580,30.273,999.512,-931.152,38.574,-80.078,0
1539545103.584,22.461,999.512,-937.012,40.527,-68.848,0
1539545103.588,24.902,999.512,-902.832,31.738,-15.137,0
1539545103.592,31.250,999.512,-967.285,34.180,-38.574,0
1539545103.596,20.996,999.512,-937.500,41.992,-68.359,0
1539545103.600,24.902,999.512,-903.809,49.316,-74.707,0
1539545103.604,29.297,999.512,-886.230,53.223,-9.766,0
1539545103.607,28.809,999.512,-822.266,38.086,32.715,0
1539545103.611,35.645,999.512,-888.184,36.133,-54.199,0
1539545103.615,38.574,999.512,-990.234,50.781,-107.910,0
1539545103.619,26.855,999.512,-947.266,46.875,-22.461,0
1539545103.623,27.344,999.512,-879.395,48.828,48.828,0
1539545103.627,43.457,999.512,-936.523,59.082,-36.621,0
1539545103.631,46.875,999.512,-979.492,62.500,-111.328,0
1539545103.635,41.504,999.512,-964.355,72.266,-63.965,0
1539545103.639,34.180,999.512,-969.727,49.805,-6.348,0
1539545103.643,30.273,999.512,-969.238,30.762,5.859,0
1539545103.647,28.320,999.512,-969.238,39.551,-63.477,0
1539545103.650,20.508,999.512,-969.238,36.133,-50.781,0
1539545103.654,13.184,999.512,-969.238,28.809,35.156,0
1539545103.658,17.090,999.512,-969.238,44.434,29.297,0
1539545103.662,29.297,999.512,-969.238,62.988,-59.570,0
1539545103.666,24.902,999.512,-969.238,60.059,-53.223,0
1539545103.670,28.320,999.512,-969.238,49.805,24.902,0
1539545103.674,34.180,999.512,-969.727,41.016,27.344,0
1539545103.678,37.598,999.512,-965.332,58.594,-62.012,0
1539545103.682,38.574,999.512,-979.004,58.105,-103.516,0
1539545103.686,33.203,999.512,-935.547,41.992,29.297,0
1539545103.689,31.738,999.512,-903.809,53.711,110.840,0
1539545103.693,34.180,999.512,-964.844,57.617,32.715,0
1539545103.697,37.598,999.512,-974.609,51.758,-34.668,0
1539545103.701,33.203,999.512,-962.402,50.781,11.230,0
1539545103.705,26.855,999.512,-923.828,45.410,100.098,0
1539545103.709,26.367,999.512,-949.707,47.363,56.152,0
1539545103.713,32.715,999.512,-976.074,43.945,-17.090,0
1539545103.717,29.785,999.512,-958.008,37.598,24.414,0
1539545103.721,33.203,999.512,-964.355,39.551,84.473,0
1539545103.725,49.805,999.512,-970.703,48.340,73.730,0
1539545103.729,47.363,999.512,-968.750,48.340,15.625,0
1539545103.732,45.410,999.512,-969.238,47.852,8.301,0
1539545103.736,42.969,999.512,-964.844,62.988,61.523,0
1539545103.740,35.156,999.512,-967.285,63.965,62.988,0
1539545103.744,28.320,999.512,-970.703,58.105,-14.160,0
1539545103.748,26.367,999.512,-963.379,53.711,-38.086,0
1539545103.752,18.555,999.512,-973.633,45.898,15.137,0
1539545103.756,12.207,999.512,-908.691,35.645,67.871,0
1539545103.760,20.508,998.047,-823.730,45.410,59.570,0
1539545103.764,22.949,-997.559,-875.488,71.777,7.324,0
1539545103.768,29.785,988.770,-967.773,69.336,7.324,0
1539545103.772,32.715,982.422,-921.387,38.574,66.895,0
1539545103.775,23.438,-999.023,-785.156,33.203,75.684,0
1539545103.779,23.926,999.512,-743.164,38.574,34.668,0
1539545103.783,24.414,999.023,-898.926,41.504,4.883,0
1539545103.787,8.789,999.512,-903.809,45.898,58.105,0
1539545103.791,9.277,999.512,-685.547,41.992,104.004,0
1539545103.795,27.832,999.512,-762.695,45.410,21.484,0
1539545103.799,29.785,999.512,-854.492,55.176,0.000,0
1539545103.803,30.762,998.535,-791.504,60.059,30.273,0
1539545103.807,26.855,-998.535,-693.359,51.758,58.594,0
1539545103.811,30.762,994.629,-734.863,57.129,34.180,0
1539545103.814,39.062,986.816,-945.312,64.453,-28.320,0
1539545103.818,31.738,994.629,-977.051,53.223,15.137,0
1539545103.822,25.879,-993.652,-751.465,52.734,96.680,0
1539545103.826,36.621,989.746,-701.172,54.199,77.148,0
1539545103.830,42.480,934.082,-964.844,46.875,-27.344,0
1539545103.834,29.297,983.887,-802.734,43.945,17.090,0
1539545103.838,24.414,-992.188,-531.738,50.781,93.750,0
1539545103.842,33.691,994.141,-710.938,60.547,50.781,0
1539545103.846,38.574,998.047,-914.062,67.383,-33.203,0
1539545103.850,34.180,999.023,-701.172,56.641,-10.742,0
1539545103.854,28.809,999.512,-534.668,46.875,58.105,0
1539545103.857,22.461,999.023,-664.062,55.176,33.203,0
1539545103.861,34.180,-1000.000,-873.535,53.711,-36.621,0
1539545103.865,40.527,995.605,-934.082,41.504,-55.664,0
1539545103.869,24.902,-991.699,-734.375,29.785,11.230,0
1539545103.873,28.320,974.609,-757.812,29.785,45.410,0
1539545103.877,35.156,944.824,-963.379,37.109,-28.320,0
1539545103.881,33.691,999.023,-807.129,45.898,-71.777,0
1539545103.885,38.574,-998.047,-620.117,56.152,-10.742,0
1539545103.889,30.762,997.070,-605.469,42.969,39.062,0
1539545103.893,28.809,999.512,-589.355,18.555,19.531,0
1539545103.897,37.598,999.512,-569.824,29.785,-30.762,0
1539545103.900,37.109,999.512,-708.984,41.992,-38.574,0
1539545103.904,23.926,999.512,-741.699,41.504,2.930,0
1539545103.908,25.879,998.047,-741.211,54.199,5.371,0
1539545103.912,36.621,-999.023,-841.797,48.828,-38.574,0
1539545103.916,39.062,998.535,-800.293,46.387,-41.504,0
1539545103.920,38.086,975.586,-941.895,43.457,-32.227,0
1539545103.924,35.156,991.699,-834.473,44.434,5.859,0
1539545103.928,38.574,-997.070,-673.828,55.664,-14.160,0
1539545103.932,42.480,997.559,-857.910,53.711,-64.941,0
1539545103.936,39.062,-1000.000,-808.105,50.781,-0.977,0
1539545103.939,36.621,999.512,-583.008,51.270,70.801,0
1539545103.943,38.574,999.512,-757.812,54.199,-2.930,0
1539545103.947,32.227,999.023,-980.957,51.758,-89.355,0
1539545103.951,25.391,999.512,-862.793,46.387,-42.480,0
1539545103.955,35.645,995.117,-796.387,54.199,44.434,0
1539545103.959,42.969,-987.793,-903.320,55.664,20.508,0
1539545103.963,45.898,947.266,-981.934,46.387,-89.844,0
1539545103.967,40.527,925.293,-919.922,38.574,-59.082,0
1539545103.971,30.762,-994.629,-730.957,32.715,43.945,0
1539545103.975,37.598,999.512,-721.680,41.016,32.715,0
1539545103.979,41.992,995.605,-925.293,48.340,-54.688,0
1539545103.982,34.180,999.023,-906.250,39.551,-53.711,0
1539545103.986,28.320,999.512,-729.004,46.387,13.672,0
1539545103.990,37.598,999.023,-709.473,56.641,45.898,0
1539545103.994,39.551,999.512,-862.793,62.988,-13.184,0
1539545103.998,32.715,997.559,-895.996,48.340,-72.266,0
1539545104.002,31.738,-998.535,-881.348,32.715,-11.719,0
1539545104.006,32.227,998.535,-942.383,43.945,10.742,0
1539545104.010,32.715,955.566,-965.820,49.316,-57.129,0
1539545104.014,22.949,979.980,-975.098,39.062,-92.773,0
1539545104.018,14.160,-993.652,-952.148,33.691,-45.410,0
1539545104.022,18.555,996.094,-917.969,42.969,18.555,0
1539545104.025,27.344,-1000.000,-893.066,59.082,6.836,0
1539545104.029,23.926,999.512,-882.812,65.918,-53.223,0
1539545104.033,17.578,999.512,-874.512,42.969,-65.430,0
1539545104.037,24.414,999.512,-901.855,29.785,-28.809,0
1539545104.041,23.438,-999.512,-913.574,37.598,-7.812,0
1539545104.045,19.043,992.188,-914.551,56.152,-74.707,0
1539545104.049,25.391,-981.445,-972.168,80.566,-88.867,0
1539545104.053,35.645,930.664,-974.121,76.660,-27.832,0
1539545104.057,36.133,881.836,-945.312,67.871,-19.531,0
1539545104.061,30.762,-996.582,-905.762,64.941,-36.133,0
1539545104.064,37.109,-997.559,-935.547,62.012,-82.031,0
1539545104.068,34.668,995.117,-906.250,51.758,-27.832,0
1539545104.072,37.109,-1000.000,-878.906,62.500,30.762,0
1539545104.076,39.551,999.512,-912.598,78.613,-2.441,0
1539545104.080,36.621,999.512,-916.992,60.547,-54.688,0
1539545104.084,31.250,-1000.000,-884.766,47.852,-25.391,0
1539545104.088,25.879,990.723,-732.910,48.828,46.387,0
1539545104.092,29.785,-986.328,-729.980,58.594,24.414,0
1539545104.096,36.621,957.520,-899.414,77.637,-40.039,0
1539545104.100,41.504,785.156,-997.070,96.191,-64.941,0
1539545104.104,46.875,909.668,-827.148,87.402,9.766,0
1539545104.107,47.363,-969.727,-585.449,60.547,62.500,0
1539545104.111,51.270,965.332,-719.238,44.434,0.000,0
1539545104.115,56.152,967.773,-770.020,46.387,-16.113,0
1539545104.119,42.969,-999.023,-470.215,47.363,75.195,0
1539545104.123,43.457,-993.652,-322.754,54.688,124.023,0
1539545104.127,53.223,963.379,-501.465,68.359,46.875,0
1539545104.131,52.734,945.801,-680.664,70.801,-13.672,0
1539545104.135,54.688,985.840,-497.070,70.312,47.852,0
1539545104.139,57.617,-962.891,-267.090,73.730,123.047,0
1539545104.143,61.523,852.051,-574.219,75.684,76.172,0
1539545104.147,63.477,771.484,-845.215,85.449,-14.648,0
1539545104.150,55.176,-990.234,-460.938,89.355,42.480,0
1539545104.154,53.223,-1000.000,-382.324,71.777,88.867,0
1539545104.158,58.105,941.895,-585.938,60.059,67.383,0
1539545104.162,59.082,976.562,-549.805,49.805,18.555,0
1539545104.166,59.570,-993.652,-377.930,54.199,16.113,0
1539545104.170,60.547,995.605,-242.676,63.965,96.191,0
1539545104.174,64.941,995.117,-286.621,60.547,111.816,0
1539545104.178,76.660,995.605,-359.375,49.316,52.246,0
1539545104.182,74.707,-995.605,-318.359,45.410,31.738,0
1539545104.186,63.965,984.375,-307.129,51.758,66.406,0
1539545104.189,69.336,974.121,-370.605,49.316,99.609,0
1539545104.193,72.754,921.387,-448.242,53.711,80.078,0
1539545104.197,65.918,914.062,-474.609,45.898,18.555,0
1539545104.201,68.359,989.258,-340.820,38.086,50.293,0
1539545104.205,67.383,915.039,-437.988,45.410,104.492,0
1539545104.209,60.059,968.262,-328.613,41.016,97.168,0
1539545104.213,60.547,-987.793,-145.508,51.270,33.691,0
1539545104.217,65.430,991.699,-190.430,52.734,39.551,0
1539545104.221,66.895,999.512,-84.473,46.387,117.188,0
1539545104.225,72.754,-1000.000,52.246,52.734,125.977,0
1539545104.229,80.078,999.512,-3.906,49.805,58.105,0
1539545104.232,72.266,992.676,-105.469,45.898,18.066,0
1539545104.236,74.707,991.211,-123.047,45.898,66.895,0
1539545104.240,75.684,982.422,-95.703,45.898,92.773,0
1539545104.244,69.824,993.652,-72.266,30.762,41.992,0
1539545104.248,77.148,781.250,-286.133,31.738,-25.391,0
1539545104.252,81.543,769.531,-251.465,44.434,13.672,0
1539545104.256,69.824,-978.027,202.148,38.086,94.238,0
1539545104.260,79.590,995.117,228.516,36.621,49.805,0
1539545104.264,89.844,957.520,37.109,55.176,-28.809,0
1539545104.268,78.613,987.305,164.551,54.199,15.625,0
1539545104.272,75.684,-991.211,407.227,29.297,108.398,0
1539545104.275,73.242,984.375,320.801,29.785,77.148,0
1539545104.279,79.590,925.293,102.539,36.621,-26.367,0
1539545104.283,77.148,893.555,66.895,42.969,-21.973,0
1539545104.287,63.965,958.008,203.125,46.387,49.316,0
1539545104.291,66.406,990.234,310.547,45.898,52.246,0
1539545104.295,73.730,791.992,32.227,45.410,-24.902,0
1539545104.299,70.801,883.789,152.344,28.809,-31.738,0
1539545104.303,74.707,-967.773,391.113,40.039,7.324,0
1539545104.307,76.660,966.309,265.137,52.246,35.645,0
1539545104.311,67.871,974.609,249.512,36.133,-11.230,0
1539545104.314,61.523,-995.605,286.133,25.391,-81.055,0
1539545104.318,61.523,996.582,417.969,31.250,-13.184,0
1539545104.322,62.500,990.234,390.137,48.828,25.879,0
1539545104.326,59.570,-994.629,316.406,41.016,-16.602,0
1539545104.330,59.570,912.109,139.648,33.691,-83.496,0
1539545104.334,60.547,955.078,220.215,35.645,-38.086,0
1539545104.338,68.359,916.992,250.977,37.109,21.973,0
1539545104.342,61.523,840.820,22.949,41.992,-22.461,0
1539545104.346,57.617,-996.582,166.504,40.039,-93.750,0
1539545104.350,58.594,-995.605,315.918,53.711,-79.590,0
1539545104.354,54.688,990.723,350.098,54.688,-6.348,0
1539545104.357,60.547,-994.629,344.238,49.316,-18.066,1
1539545104.361,69.336,980.957,244.141,53.711,-89.844,0
1539545104.365,65.430,896.973,11.719,53.711,-132.812,0
1539545104.369,50.293,931.641,107.910,61.035,-80.078,0
1539545104.373,44.434,-989.746,317.383,63.965,-34.180,0
1539545104.377,50.781,956.543,151.367,62.500,-80.566,0
1539545104.381,55.176,873.047,-56.152,41.504,-140.625,0
1539545104.385,47.852,846.680,-106.445,10.742,-99.121,0
1539545104.389,41.992,957.520,88.867,7.812,-38.086,0
1539545104.393,39.551,-981.934,286.133,23.926,-62.500,0
1539545104.397,42.480,969.238,94.727,34.668,-130.859,0
1539545104.400,43.945,970.215,46.387,39.062,-119.141,0
1539545104.404,38.574,-999.512,283.203,40.039,-27.344,0
1539545104.408,35.645,-989.746,298.340,41.992,-25.391,0
1539545104.412,41.504,935.059,21.973,52.246,-122.070,0
1539545104.416,52.246,932.617,-25.391,55.664,-132.812,0
1539545104.420,50.781,996.094,61.523,43.945,-64.453,0
1539545104.424,55.176,990.723,7.324,38.574,-38.086,0
1539545104.428,53.223,801.758,-207.520,44.922,-87.402,0
1539545104.432,41.504,760.742,-303.223,52.246,-122.559,0
1539545104.436,39.551,-993.164,20.996,45.898,-85.449,0
1539545104.439,35.645,-996.094,182.617,44.922,-41.016,0
1539545104.443,31.250,988.281,77.148,46.875,-62.988,0
1539545104.447,24.902,-1000.000,-31.250,41.992,-132.324,0
1539545104.451,26.367,-1000.000,160.645,47.852,-65.918,0
1539545104.455,39.062,999.023,246.094,52.734,8.301,0
1539545104.459,29.785,-1000.000,167.969,51.758,-1.953,0
1539545104.463,26.367,995.117,156.738,48.340,-60.547,0
1539545104.467,24.414,-1000.000,197.754,43.945,-80.078,0
1539545104.471,22.461,-990.234,227.539,45.410,-0.977,0
1539545104.475,25.879,833.496,-33.691,49.316,-17.578,0
1539545104.479,10.742,855.957,-57.617,35.156,-88.379,0
1539545104.482,3.418,-979.980,293.945,23.438,-83.984,0
1539545104.486,12.695,989.258,397.461,45.410,-26.367,0
1539545104.490,10.742,989.746,453.613,55.664,29.297,0
1539545104.494,5.859,-999.023,539.551,48.340,-3.418,0
1539545104.498,15.625,999.023,472.656,52.246,-77.637,0
1539545104.502,11.719,999.023,502.441,38.574,-30.273,0
1539545104.506,4.395,999.512,596.680,22.949,27.832,0
1539545104.510,-0.488,999.512,698.242,26.367,-1.465,0
1539545104.514,-4.883,999.512,747.559,46.875,-56.641,0
1539545104.518,1.465,999.512,640.625,55.664,-43.945,0
1539545104.522,-1.465,999.512,728.027,49.316,27.344,0
1539545104.525,-1.953,999.512,-988.281,41.992,24.414,0
1539545104.529,-7.324,999.512,999.023,42.480,-41.016,0
1539545104.533,-15.137,999.512,986.816,44.922,-43.945,0
1539545104.537,1.953,999.512,998.535,44.922,13.184,0
1539545104.541,-10.254,999.512,-999.512,43.457,40.527,0
1539545104.545,-31.738,999.512,999.023,56.152,-32.715,0
1539545104.549,-27.344,999.512,999.512,74.219,-57.129,0
1539545104.553,-39.551,999.512,999.512,59.570,22.461,0
1539545104.557,-49.805,999.512,999.512,22.949,65.430,0
1539545104.561,-40.039,999.512,999.512,24.902,7.324,0
1539545104.564,-31.250,999.512,999.512,52.734,-59.082,0
1539545104.568,-47.363,999.512,999.512,57.617,-19.531,0
1539545104.572,-74.219,999.512,999.512,49.316,39.062,0
1539545104.576,-76.660,999.512,999.512,40.527,4.883,0
1539545104.580,-75.684,999.512,999.512,40.527,-101.562,0
1539545104.584,-88.379,999.512,999.512,40.039,-47.852,0
1539545104.588,-110.840,999.512,999.512,26.855,79.102,0
1539545104.592,-115.723,999.512,999.512,19.043,38.574,0
1539545104.596,-99.609,999.512,999.512,21.484,-43.945,0
1539545104.600,-141.602,999.512,999.512,18.555,-44.434,0
1539545104.604,-185.547,999.512,999.512,5.371,40.527,0
1539545104.607,-194.336,999.512,999.512,-11.719,72.754,0
1539545104.611,-195.312,999.512,999.512,-0.488,-8.789,0
1539545104.615,-201.172,999.512,999.512,10.254,-45.410,0
1539545104.619,-226.562,999.512,999.512,-4.395,32.715,0
1539545104.623,-247.559,999.512,999.512,-39.551,65.430,0
1539545104.627,-272.949,999.512,999.512,-57.129,8.789,0
1539545104.631,-292.969,999.512,999.512,-57.617,-8.301,0
1539545104.635,-311.523,999.512,999.512,-72.266,38.574,0
1539545104.639,-333.008,999.512,999.512,-83.008,76.660,0
1539545104.643,-326.660,999.512,999.512,-81.055,68.359,0
1539545104.647,-309.570,999.512,999.512,-78.125,27.832,0
1539545104.650,-312.500,999.512,999.512,-63.477,13.672,0
1539545104.654,-315.918,999.512,999.512,-79.590,54.199,0
1539545104.658,-321.289,999.512,999.512,-103.516,70.801,0
1539545104.662,-338.867,999.512,999.512,-87.891,25.879,0
1539545104.666,-337.402,999.512,999.512,-79.590,21.484,0
1539545104.670,-318.848,999.512,999.512,-92.285,49.805,0
1539545104.674,-292.480,999.512,999.512,-99.121,82.520,0
1539545104.678,-285.156,999.512,999.512,-67.871,61.035,0
1539545104.682,-272.949,999.512,999.512,-47.363,15.137,0
1539545104.686,-251.953,999.512,999.512,-59.082,65.430,0
1539545104.689,-231.445,999.512,999.512,-47.852,138.672,0
1539545104.693,-212.402,999.512,999.512,-26.367,109.863,0
1539545104.697,-178.223,999.512,999.512,-20.508,36.621,0
1539545104.701,-153.809,999.512,999.512,0.488,63.965,0
1539545104.705,-137.207,999.512,999.512,37.109,125.000,0
1539545104.709,-102.051,999.512,999.512,37.109,97.168,0
1539545104.713,-75.195,999.512,999.512,22.461,6.348,0
1539545104.717,-83.984,999.512,999.512,28.320,19.043,0
1539545104.721,-56.152,999.512,999.512,45.410,106.934,0
1539545104.725,-22.461,999.512,999.512,61.523,137.207,0
1539545104.729,-26.367,999.512,999.512,64.941,91.797,0
1539545104.732,-20.020,999.512,999.512,58.105,46.387,0
1539545104.736,-15.137,999.512,999.512,64.453,88.379,0
1539545104.740,21.973,998.535,999.512,85.449,126.465,0
1539545104.744,44.434,994.629,999.512,99.121,87.891,0
1539545104.748,52.734,997.559,999.512,102.051,23.926,0
1539545104.752,73.730,910.156,999.512,97.168,53.711,0
1539545104.756,88.379,637.207,999.512,109.863,108.887,0
1539545104.760,89.844,179.688,999.512,110.840,43.945,0
1539545104.764,91.797,58.594,999.512,107.910,-15.137,0
1539545104.768,92.285,62.988,999.512,113.281,27.832,0
1539545104.772,105.957,-258.301,-999.512,87.891,77.148,0
1539545104.775,134.277,-571.289,993.164,73.242,44.434,0
1539545104.779,125.977,-808.594,997.070,82.520,-22.949,0
1539545104.783,100.586,-966.797,966.309,89.844,-15.625,0
1539545104.787,110.352,-965.820,624.023,108.887,54.199,0
1539545104.791,126.953,-967.285,196.777,107.422,60.547,0
1539545104.795,141.113,-969.727,-190.430,103.516,-18.555,0
1539545104.799,152.832,-969.238,-746.582,117.188,-72.266,0
1539545104.803,152.344,-969.238,-985.840,122.070,-37.598,0
1539545104.807,146.484,-969.238,-954.590,104.492,-16.602,0
1539545104.811,138.672,-969.238,-967.773,79.590,-82.031,0
1539545104.814,160.645,-969.238,-970.215,88.867,-145.996,0
1539545104.818,155.762,-969.238,-969.238,107.910,-125.977,0
1539545104.822,129.883,-969.238,-969.238,114.746,-111.816,0
1539545104.826,133.301,-969.238,-969.238,104.004,-205.078,0
1539545104.830,130.371,-969.238,-969.238,109.863,-346.680,0
1539545104.834,127.930,-969.238,-969.238,114.258,-361.816,0
1539545104.838,127.930,-969.238,-969.238,108.887,-309.570,0
1539545104.842,141.602,-969.238,-969.238,106.445,-339.844,0
1539545104.846,161.133,-969.238,-969.238,97.656,-415.039,0
1539545104.850,171.875,-969.238,-969.238,85.449,-408.691,0
1539545104.854,166.992,-969.238,-969.238,83.496,-302.246,0
1539545104.857,161.133,-969.238,-969.238,91.309,-237.305,0
1539545104.861,177.734,-969.238,-969.238,98.633,-294.922,0
1539545104.865,178.223,-969.238,-969.238,107.422,-313.477,0
1539545104.869,162.109,-969.238,-969.238,126.465,-218.262,0
1539545104.873,183.105,-969.238,-969.238,96.191,-152.832,0
1539545104.877,197.266,-969.238,-969.238,57.617,-206.543,0
1539545104.881,166.992,-969.238,-969.238,59.082,-266.113,0
1539545104.885,140.625,-969.238,-969.238,49.805,-203.125,0
1539545104.889,148.438,-969.238,-969.238,62.500,-102.051,0
1539545104.893,149.902,-969.238,-969.238,78.125,-96.191,0
1539545104.897,156.738,-969.238,-969.238,68.359,-179.688,0
1539545104.900,159.180,-969.238,-969.238,57.617,-150.391,0
1539545104.904,151.367,-969.238,-969.238,48.828,-62.500,0
1539545104.908,149.414,-969.238,-969.238,44.922,-62.500,0
1539545104.912,137.207,-969.238,-969.238,41.504,-98.633,0
1539545104.916,126.953,-969.238,-969.238,37.109,-106.445,0
1539545104.920,112.793,-974.609,-969.238,48.340,-65.430,0
1539545104.924,108.398,-918.457,-969.238,45.898,-7.812,0
1539545104.928,105.469,-1000.000,-969.238,48.828,-46.387,0
1539545104.932,167.480,-559.082,-969.238,31.250,-87.402,0
1539545104.936,256.836,655.762,-969.238,-9.277,-75.195,0
1539545104.939,245.117,971.680,-969.238,-14.648,-41.992,0
1539545104.943,212.891,882.324,-969.238,-17.090,-39.551,0
1539545104.947,189.453,797.852,-969.238,-13.672,-101.562,0
1539545104.951,166.504,615.723,-969.238,18.066,-87.891,0
1539545104.955,167.969,372.559,-969.238,36.621,-15.137,0
1539545104.959,144.531,475.098,-969.238,23.438,-0.488,0
1539545104.963,134.766,611.816,-969.238,15.625,-53.223,0
1539545104.967,142.578,356.445,-969.238,41.504,-56.152,0
1539545104.971,116.211,216.797,-969.238,41.016,8.789,0
1539545104.975,103.027,278.809,-969.238,2.930,34.668,0
1539545104.979,102.539,259.277,-969.238,8.789,-18.555,0
1539545104.982,94.727,138.184,-969.238,23.926,-65.430,0
1539545104.986,72.754,-20.996,-969.238,32.715,-23.438,0
1539545104.990,81.055,-1.953,-970.703,53.223,25.391,0
1539545104.994,114.746,211.914,-960.449,62.500,13.184,0
1539545104.998,97.656,-21.973,-977.539,41.504,-56.152,0
1539545105.002,64.941,-101.562,-919.434,35.645,-20.996,0
1539545105.006,55.664,479.004,-641.113,28.320,109.863,0
1539545105.010,52.734,625.000,-459.961,3.418,99.609,0
1539545105.014,59.570,596.191,-427.734,8.301,38.086,0
1539545105.018,66.406,769.531,-211.426,24.414,82.520,0
1539545105.022,55.664,920.410,20.508,28.320,146.484,0
1539545105.025,48.828,987.793,115.723,39.551,130.859,0
1539545105.029,60.059,-1000.000,249.023,31.738,60.547,0
1539545105.033,52.734,997.070,412.598,-8.301,64.453,0
1539545105.037,38.086,-1000.000,694.824,-0.977,159.180,0
1539545105.041,43.945,999.512,979.980,16.602,186.523,0
1539545105.045,62.012,999.512,998.535,24.414,104.004,0
1539545105.049,49.805,999.512,991.699,19.043,79.590,0
1539545105.053,34.668,999.512,-998.535,18.066,178.223,0
1539545105.057,38.574,999.512,999.023,20.996,251.465,0
1539545105.061,44.922,999.512,999.512,1.953,225.098,0
1539545105.064,48.828,999.512,999.512,3.906,171.387,0
1539545105.068,36.621,999.512,999.512,-1.465,227.539,0
1539545105.072,18.555,999.512,999.512,-20.508,294.434,0
1539545105.076,13.672,999.512,999.512,-20.996,276.855,0
1539545105.080,26.855,999.512,999.512,-13.672,196.777,0
1539545105.084,37.598,999.512,999.512,-16.602,193.848,0
1539545105.088,43.945,999.512,999.512,-13.672,277.344,0
1539545105.092,20.020,999.512,999.512,-1.953,290.039,0
1539545105.096,15.625,999.512,999.512,-16.113,242.188,0
1539545105.100,29.297,999.512,999.512,-11.230,230.469,0
1539545105.104,16.602,999.512,999.512,2.930,289.062,0
1539545105.107,11.230,999.512,999.512,5.371,307.129,0
1539545105.111,27.832,999.512,999.512,-3.906,245.117,0
1539545105.115,29.297,999.512,999.512,-11.719,224.121,0
1539545105.119,17.578,999.512,999.512,4.883,294.922,0
1539545105.123,17.090,999.512,999.512,13.184,311.523,0
1539545105.127,27.344,999.512,999.512,12.695,223.633,0
1539545105.131,38.574,999.512,999.512,1.953,170.898,0
1539545105.135,16.602,999.512,999.512,-10.742,181.152,0
1539545105.139,-23.438,999.512,999.512,-12.695,229.004,0
1539545105.143,-7.324,999.512,999.512,-24.902,251.953,0
1539545105.147,9.766,999.512,999.512,-37.109,169.922,0
1539545105.150,-2.930,999.512,999.512,-34.180,145.508,0
1539545105.154,-16.113,999.512,999.512,-24.414,198.730,0
1539545105.158,1.953,999.512,999.512,-21.484,213.379,0
1539545105.162,15.625,999.512,999.512,-22.461,150.391,0
1539545105.166,-20.020,999.512,999.512,-22.949,111.816,0
1539545105.170,-26.367,999.512,999.512,-4.883,162.109,0
1539545105.174,-10.742,999.512,999.512,6.836,171.387,0
1539545105.178,1.465,999.512,999.512,15.625,109.863,0
1539545105.182,-5.371,999.023,999.512,24.414,43.945,0
1539545105.186,-0.977,997.559,999.512,1.953,105.469,0
1539545105.189,7.812,-998.047,999.512,-2.930,169.434,0
1539545105.193,-15.137,961.914,999.512,14.160,125.000,0
1539545105.197,-24.414,885.254,999.512,13.184,60.059,0
1539545105.201,-28.809,772.949,999.512,-2.441,76.172,0
1539545105.205,-8.789,611.328,999.512,-6.348,147.461,0
1539545105.209,3.418,338.379,999.512,-0.977,152.832,0
1539545105.213,-0.977,196.777,999.512,-11.230,74.707,0
1539545105.217,11.719,122.559,999.512,5.371,42.969,0
1539545105.221,-14.160,-194.336,999.512,27.344,78.125,0
1539545105.225,-19.043,-564.453,999.512,-2.930,75.684,0
1539545105.229,0.488,-565.918,999.512,-5.859,9.766,0
1539545105.232,-10.742,-350.586,999.512,4.395,-7.812,0
1539545105.236,-7.812,-463.867,999.512,-2.441,52.246,0
1539545105.240,9.277,-587.891,998.535,29.297,86.914,0
1539545105.244,16.602,-537.109,994.141,19.531,41.992,0
1539545105.248,6.348,-564.453,-985.352,13.184,-20.020,0
1539545105.252,-15.625,-694.336,892.578,31.738,7.812,0
1539545105.256,-10.254,-698.242,805.176,6.836,89.355,0
1539545105.260,19.531,-633.301,778.809,-3.906,63.477,0
1539545105.264,13.672,-683.105,623.535,2.930,-21.973,0
1539545105.268,-4.395,-826.660,372.070,3.906,-8.789,0
1539545105.272,-7.324,-902.344,188.965,14.160,58.594,0
1539545105.275,0.977,-753.906,203.613,-28.809,48.828,0
1539545105.279,10.254,-598.633,256.348,-52.246,-12.695,0
1539545105.283,-4.883,-778.320,2.930,-11.719,-21.484,0
1539545105.287,-19.043,-871.582,-177.246,-3.906,23.926,0
1539545105.291,-21.973,-541.992,82.031,-20.020,66.406,0
1539545105.295,-10.742,-512.207,55.664,-18.555,-5.859,0
1539545105.299,14.648,-608.887,-120.605,-1.953,-67.383,0
1539545105.303,13.672,-479.004,-51.758,3.906,16.113,0
1539545105.307,7.324,-359.863,33.203,11.230,77.148,0
1539545105.311,11.719,-422.363,-97.168,21.484,11.719,0
1539545105.314,10.742,-545.898,-312.012,27.832,-59.082,0
1539545105.318,33.203,-535.645,-387.695,57.617,-20.508,0
1539545105.322,24.902,-368.164,-281.738,40.039,45.410,0
1539545105.326,-3.418,-317.383,-271.484,35.645,20.508,1
1539545105.330,16.602,-360.840,-371.582,44.922,-53.711,0
1539545105.334,33.691,-199.707,-262.207,28.809,-35.645,0
1539545105.338,35.645,-79.102,-147.461,31.738,42.480,0
1539545105.342,34.668,-247.070,-313.965,42.480,43.457,0
1539545105.346,38.086,-446.777,-575.195,56.641,-34.668,0
1539545105.350,37.598,-214.844,-426.270,37.109,-45.410,0
1539545105.354,27.832,-73.730,-296.875,24.414,27.832,0
1539545105.357,11.719,-169.434,-410.156,38.574,63.477,0
1539545105.361,15.625,-336.426,-636.230,52.246,-5.859,0
1539545105.365,35.156,-324.707,-700.684,53.223,-44.434,0
1539545105.369,38.574,-79.102,-516.602,49.316,22.949,0
1539545105.373,29.297,-289.062,-705.566,66.895,32.227,0
1539545105.377,22.949,-463.867,-933.105,67.871,-21.973,0
1539545105.381,37.598,-89.355,-671.387,40.039,-34.668,0
1539545105.385,41.992,-23.926,-581.055,22.461,0.000,0
1539545105.389,17.090,-181.152,-745.605,30.762,24.414,0
1539545105.393,35.645,-101.562,-708.496,47.363,34.668,0
1539545105.397,71.777,42.969,-580.078,58.594,7.324,0
1539545105.400,52.246,-134.766,-757.812,46.387,-29.785,0
1539545105.404,38.574,-196.777,-832.520,48.828,23.438,0
1539545105.408,23.438,-111.816,-760.254,58.594,64.941,0
1539545105.412,18.066,-139.648,-823.730,35.645,-7.812,0
1539545105.416,28.320,-61.523,-756.836,26.855,-34.668,0
1539545105.420,21.484,-230.469,-908.691,55.664,-1.953,0
1539545105.424,19.531,-63.477,-821.289,60.059,45.410,0
1539545105.428,27.344,239.258,-540.527,52.734,18.555,0
1539545105.432,26.367,117.188,-617.188,66.406,-35.645,0
1539545105.436,9.766,123.535,-586.914,60.547,24.902,0
1539545105.439,-0.488,256.836,-436.523,35.156,66.406,0
1539545105.443,4.883,253.418,-429.688,4.395,12.695,0
1539545105.447,26.855,182.617,-500.488,6.348,-53.223,0
1539545105.451,28.320,233.887,-419.434,3.418,-20.996,0
1539545105.455,6.348,259.277,-340.820,-5.859,59.570,0
1539545105.459,7.324,245.117,-332.031,4.395,61.523,0
1539545105.463,15.137,127.930,-442.871,7.812,-26.855,0
1539545105.467,8.789,128.418,-441.406,5.859,-47.363,0
1539545105.471,-0.977,512.695,-8.301,13.184,49.316,0
1539545105.475,17.578,618.164,209.961,30.273,86.426,0
1539545105.479,17.578,490.723,159.668,36.133,18.066,0
1539545105.482,39.551,491.699,201.172,48.340,-29.785,0
1539545105.486,44.434,648.926,437.012,46.387,59.570,0
1539545105.490,0.000,572.754,432.617,44.434,86.426,0
1539545105.494,26.367,457.031,313.477,32.715,17.090,0
1539545105.498,34.180,524.414,374.023,6.836,-23.438,0
1539545105.502,7.812,486.816,373.535,12.207,4.883,0
1539545105.506,16.602,422.363,343.750,19.531,55.176,0
1539545105.510,9.766,262.207,182.129,20.996,4.883,0
1539545105.514,-10.254,427.734,333.984,20.508,-40.039,0
1539545105.518,-5.859,655.273,625.000,12.207,3.906,0
1539545105.522,11.230,551.270,597.168,15.625,62.500,0
1539545105.525,16.113,552.246,591.309,15.625,63.477,0
1539545105.529,22.461,687.988,673.340,3.418,10.742,0
1539545105.533,34.668,751.953,766.113,2.930,24.902,0
1539545105.537,56.152,639.648,736.328,27.832,79.590,0
1539545105.541,26.855,604.004,764.648,54.199,90.332,0
1539545105.545,-4.883,653.809,880.371,44.922,33.691,0
1539545105.549,18.066,512.207,801.270,41.992,-20.020,0
1539545105.553,19.043,308.105,621.582,29.297,10.254,0
1539545105.557,18.555,385.742,651.367,12.695,46.387,0
1539545105.561,30.273,743.164,942.383,10.254,31.738,0
1539545105.564,37.598,808.105,-999.023,18.555,-21.973,0
1539545105.568,55.664,644.043,883.301,46.875,-6.348,0
1539545105.572,41.016,640.625,918.945,61.523,59.082,0
1539545105.576,10.254,670.410,-992.676,51.758,52.246,0
1539545105.580,26.855,620.605,941.406,39.551,-28.809,0
1539545105.584,34.180,737.305,914.062,52.734,-17.090,0
1539545105.588,22.461,953.125,963.379,52.246,57.617,0
1539545105.592,7.812,-985.352,905.273,37.109,37.598,0
1539545105.596,16.602,779.785,660.645,44.434,-34.180,0
1539545105.600,31.250,376.465,353.027,43.457,-52.246,0
1539545105.604,26.855,432.617,496.094,28.320,21.484,0
1539545105.607,19.531,618.652,770.020,41.016,61.523,0
1539545105.611,22.461,364.746,592.773,59.570,-13.672,0
1539545105.615,13.184,256.836,507.324,44.922,-42.480,0
1539545105.619,0.000,384.277,659.668,44.434,27.344,0
1539545105.623,12.207,350.098,671.387,61.523,70.312,0
1539545105.627,34.180,196.777,537.598,69.336,33.203,0
1539545105.631,34.180,-6.836,314.453,60.547,-48.828,0
1539545105.635,17.090,36.621,328.125,57.617,-17.578,0
1539545105.639,48.828,176.270,456.543,57.129,41.504,0
1539545105.643,59.082,-92.285,174.316,48.828,4.395,0
1539545105.647,27.832,-209.473,-20.020,45.898,-56.641,0
1539545105.650,29.785,96.680,235.352,40.039,-35.645,0
1539545105.654,23.926,171.875,330.566,49.316,32.227,0
1539545105.658,23.438,16.113,153.320,65.918,21.484,0
1539545105.662,25.391,-21.484,55.664,64.941,-45.898,0
1539545105.666,29.785,85.449,128.418,50.293,-57.617,0
1539545105.670,34.180,86.914,131.348,39.551,-1.465,0
1539545105.674,44.922,-59.570,-38.574,57.129,18.555,0
1539545105.678,38.086,-101.562,-165.527,73.242,-64.941,0
1539545105.682,39.551,20.020,-100.098,65.430,-114.746,0
1539545105.686,34.668,32.715,-68.359,70.312,-57.617,0
1539545105.689,18.555,-92.285,-194.336,65.918,-9.277,0
1539545105.693,36.133,-135.254,-308.594,41.016,-39.062,0
1539545105.697,34.668,-26.367,-278.809,36.133,-84.473,0
1539545105.701,25.879,83.496,-177.734,39.551,-40.527,0
1539545105.705,41.504,-90.820,-363.770,36.621,-1.465,0
1539545105.709,32.715,48.828,-291.992,48.340,-6.348,0
1539545105.713,20.508,268.555,-91.309,50.781,-66.406,0
1539545105.717,26.855,149.414,-186.035,48.828,-78.125,0
1539545105.721,23.926,177.734,-130.371,64.453,-1.465,0
1539545105.725,41.016,322.266,32.227,54.688,20.508,0
1539545105.729,45.410,333.008,63.965,34.668,-34.180,0
1539545105.732,15.625,290.527,46.387,45.898,-51.270,0
1539545105.736,23.926,246.094,41.504,53.223,3.418,0
1539545105.740,33.691,253.906,64.941,60.059,20.020,0
1539545105.744,33.203,426.270,248.535,54.688,-16.113,0
1539545105.748,41.992,263.672,131.348,37.109,-62.500,0
1539545105.752,39.062,179.199,36.133,40.039,-36.133,0
1539545105.756,22.461,586.914,451.660,44.434,48.340,0
1539545105.760,33.203,654.297,595.703,48.828,54.688,0
1539545105.764,73.730,500.977,446.777,46.387,-15.137,0
1539545105.768,53.711,577.148,518.555,47.363,1.465,0
1539545105.772,40.039,756.348,776.367,50.293,91.309,0
1539545105.775,51.270,653.320,754.883,49.805,71.289,0
1539545105.779,35.645,473.145,594.727,47.363,-31.250,0
1539545105.783,20.020,466.797,583.008,24.902,-28.320,0
1539545105.787,27.344,563.965,679.199,25.391,51.270,0
1539545105.791,32.227,617.676,748.535,39.062,64.453,0
1539545105.795,33.203,382.324,482.422,30.762,-7.324,0
1539545105.799,25.879,547.852,595.703,20.996,-14.648,0
1539545105.803,16.602,836.914,953.125,28.320,65.430,0
1539545105.807,38.086,590.820,758.789,46.875,67.383,0
1539545105.811,30.762,515.137,666.504,47.852,12.695,0
1539545105.814,19.531,690.918,848.633,52.246,-15.137,0
1539545105.818,23.438,747.070,950.684,52.246,36.133,0
1539545105.822,21.484,672.363,917.480,32.227,93.750,0
1539545105.826,23.438,595.215,835.938,26.855,53.711,0
1539545105.830,30.762,471.191,670.410,44.434,-27.344,0
1539545105.834,37.598,554.199,729.492,34.668,2.930,0
1539545105.838,34.668,528.320,742.676,20.996,68.359,0
1539545105.842,31.738,280.762,459.961,18.066,31.738,0
1539545105.846,49.316,557.129,672.363,10.742,-0.977,0
1539545105.850,36.621,716.797,868.164,4.395,11.230,0
1539545105.854,17.578,590.820,785.645,20.996,49.316,0
1539545105.857,13.184,652.344,870.117,35.156,93.750,0
1539545105.861,23.926,648.438,895.996,38.086,56.641,0
1539545105.865,35.156,529.785,811.523,51.270,9.766,0
1539545105.869,16.602,600.586,911.621,27.832,62.500,0
1539545105.873,16.602,691.895,-994.629,10.742,117.676,0
1539545105.877,58.105,568.848,944.824,24.902,76.172,0
1539545105.881,45.898,380.859,779.297,36.133,-1.953,0
1539545105.885,14.160,237.305,585.938,55.176,-1.953,0
1539545105.889,10.742,433.105,766.602,41.992,73.242,0
1539545105.893,11.230,648.438,-969.238,28.809,76.172,0
1539545105.897,56.641,445.312,865.234,39.551,-0.977,0
1539545105.900,51.270,364.258,800.781,62.012,-9.766,0
1539545105.904,6.836,535.645,974.609,85.449,68.359,0
1539545105.908,14.160,536.133,-968.262,77.148,82.031,0
1539545105.912,25.391,314.453,857.422,53.223,-16.113,0
1539545105.916,36.621,320.801,826.660,18.555,-27.344,0
1539545105.920,37.109,412.109,933.594,4.395,55.664,0
1539545105.924,24.414,299.805,833.496,9.277,83.008,0
1539545105.928,37.109,88.379,564.941,20.508,9.277,0
1539545105.932,49.316,64.941,454.102,23.438,-54.688,0
1539545105.936,28.809,452.148,855.469,19.531,33.203,0
1539545105.939,11.719,516.602,-988.770,48.828,90.332,0
1539545105.943,25.879,297.363,802.734,55.664,25.879,0
1539545105.947,23.926,292.480,751.953,30.762,-28.320,0
1539545105.951,16.602,448.242,917.480,30.273,20.020,0
1539545105.955,20.508,429.199,957.520,36.133,85.938,0
1539545105.959,44.922,221.191,765.137,42.969,41.992,0
1539545105.963,46.387,172.363,663.574,53.711,-54.199,0
1539545105.967,20.996,277.832,779.785,70.312,-38.574,0
1539545105.971,25.391,186.523,743.164,70.801,36.621,0
1539545105.975,31.250,-77.148,459.473,39.062,29.297,0
1539545105.979,39.551,-16.602,438.477,25.879,-24.414,0
1539545105.982,38.086,330.078,774.902,25.879,-4.395,0
1539545105.986,35.645,326.172,847.656,28.320,62.012,0
1539545105.990,35.645,193.359,743.164,40.039,69.824,0
1539545105.994,61.035,270.996,805.176,49.805,25.879,0
1539545105.998,55.664,264.648,798.340,63.965,-26.367,0
1539545106.002,20.996,195.801,747.070,54.688,6.348,0
1539545106.006,22.461,209.961,772.949,41.016,69.336,0
1539545106.010,37.109,260.742,807.129,41.992,41.504,0
1539545106.014,53.223,210.938,728.027,47.363,-31.738,0
1539545106.018,61.523,64.941,565.430,75.684,-35.156,0
1539545106.022,40.527,24.902,495.605,80.566,32.227,0
1539545106.025,20.996,199.707,617.676,54.688,53.223,0
1539545106.029,46.875,294.922,686.523,64.941,-6.348,0
1539545106.033,61.523,62.012,448.242,81.055,-29.297,0
1539545106.037,41.992,-61.523,263.184,79.590,22.461,0
1539545106.041,47.852,269.043,539.062,77.148,61.523,0
1539545106.045,55.176,280.762,547.363,73.242,-14.160,0
1539545106.049,33.691,200.195,439.453,48.828,-47.363,0
1539545106.053,27.832,234.863,485.352,60.059,16.113,0
1539545106.057,19.043,328.125,619.629,63.477,75.195,0
1539545106.061,30.762,303.711,625.000,33.203,32.715,0
1539545106.064,49.805,108.887,437.012,31.250,-37.598,0
1539545106.068,36.133,97.168,432.617,48.828,5.371,0
1539545106.072,0.977,207.520,567.383,45.410,74.707,0
1539545106.076,5.371,225.098,603.027,14.648,67.383,0
1539545106.080,45.410,-89.355,216.309,13.184,-41.992,0
1539545106.084,36.621,52.734,267.578,35.156,-31.738,0
1539545106.088,1.465,386.230,650.391,33.203,90.820,0
1539545106.092,8.301,162.109,460.449,42.969,74.707,0
1539545106.096,23.926,-37.598,184.082,56.152,-22.949,0
1539545106.100,28.320,137.695,315.430,55.176,-29.785,0
1539545106.104,29.785,268.066,463.379,69.824,42.969,0
1539545106.107,42.969,210.449,404.785,77.148,83.496,0
1539545106.111,62.988,57.129,206.055,62.988,25.391,0
1539545106.115,38.574,12.695,99.121,59.570,-29.297,0
1539545106.119,25.879,243.652,339.355,71.289,45.410,0
1539545106.123,32.227,230.957,381.348,78.125,109.863,0
1539545106.127,44.922,69.336,184.082,44.434,50.781,0
1539545106.131,57.617,337.402,394.043,48.828,3.906,0
1539545106.135,52.734,437.988,534.668,69.824,45.898,0
1539545106.139,25.391,305.664,412.598,47.363,80.566,0
1539545106.143,23.438,280.273,342.285,56.152,52.246,0
1539545106.147,63.477,318.848,364.258,94.238,-14.648,0
1539545106.150,77.637,232.422,292.480,114.258,-27.344,0
1539545106.154,21.484,253.906,325.684,63.965,40.527,0
1539545106.158,-9.277,314.941,402.344,20.996,83.984,0
1539545106.162,5.859,329.590,390.137,18.555,16.113,0
1539545106.166,1.465,443.848,528.809,10.742,-6.348,0
1539545106.170,-14.648,275.879,414.062,-6.836,34.668,0
1539545106.174,-37.598,391.113,528.320,-39.551,49.316,0
1539545106.178,-28.809,625.488,816.895,-56.641,17.090,0
1539545106.182,-33.691,496.582,742.676,-48.340,-29.785,0
1539545106.186,-72.266,494.141,782.715,-35.645,6.348,0
1539545106.189,-83.008,649.414,969.727,-65.430,65.430,0
1539545106.193,-84.961,645.996,989.258,-113.770,37.598,0
1539545106.197,-83.496,503.906,865.234,-117.676,-47.852,0
1539545106.201,-72.266,575.195,908.691,-103.027,-15.625,0
1539545106.205,-63.965,638.672,999.512,-92.773,60.547,0
1539545106.209,-64.453,604.980,992.188,-89.844,55.176,0
1539545106.213,-54.199,447.754,809.570,-88.867,-36.133,0
1539545106.217,-34.180,527.832,782.227,-84.961,-37.109,0
1539545106.221,-37.109,929.688,-988.281,-65.430,56.641,0
1539545106.225,-46.875,905.762,-998.047,-59.570,59.570,0
1539545106.229,-22.949,725.098,991.699,-69.336,-1.953,0
1539545106.232,3.418,718.262,997.559,-29.297,-31.738,0
1539545106.236,-1.465,810.059,998.535,14.160,24.902,0
1539545106.240,-11.230,723.145,-998.047,-9.277,52.246,0
1539545106.244,4.883,555.664,883.789,5.371,-12.695,0
1539545106.248,19.043,568.359,790.039,10.742,-60.059,0
1539545106.252,14.160,550.293,732.422,-3.418,2.441,0
1539545106.256,16.113,441.406,582.520,20.508,43.945,0
1539545106.260,35.645,267.578,313.477,39.551,-12.207,0
1539545106.264,44.922,324.707,303.223,36.621,-52.734,0
1539545106.268,48.340,461.426,467.285,41.992,-26.855,1
1539545106.272,59.082,364.258,410.156,44.922,20.508,0
1539545106.275,46.387,324.219,382.812,37.598,40.039,0
1539545106.279,35.645,360.840,405.762,42.480,2.441,0
1539545106.283,41.992,334.473,365.234,54.199,5.371,0
1539545106.287,47.363,190.430,199.219,59.082,58.105,0
1539545106.291,47.363,78.125,-9.277,53.223,53.711,0
1539545106.295,61.035,104.492,-106.445,47.363,12.695,0
1539545106.299,81.543,-67.383,-391.113,53.711,-21.973,0
1539545106.303,59.570,-183.105,-640.137,72.266,14.160,0
1539545106.307,51.758,-4.883,-567.383,62.500,83.008,0
1539545106.311,67.383,20.020,-608.398,62.500,40.039,0
1539545106.314,77.148,-58.594,-844.238,56.152,-36.133,0
1539545106.318,68.848,-282.227,-946.777,53.711,-19.043,0
1539545106.322,46.387,-356.445,-967.773,76.660,40.527,0
1539545106.326,43.457,-128.906,-967.285,76.660,58.105,0
1539545106.330,65.430,-141.113,-969.238,57.617,-0.977,0
1539545106.334,78.613,-227.539,-969.238,60.547,-19.043,0
1539545106.338,60.547,-172.852,-969.238,70.312,39.551,0
1539545106.342,57.617,-112.305,-969.238,59.570,58.105,0
1539545106.346,65.430,-316.895,-969.238,51.270,-1.953,0
1539545106.350,64.941,-389.160,-969.238,53.711,-23.438,0
1539545106.354,68.359,-190.918,-969.238,67.871,41.504,0
1539545106.357,41.992,-99.121,-969.238,66.895,97.656,0
1539545106.361,36.621,-239.258,-969.238,60.547,48.828,0
1539545106.365,62.012,-516.113,-969.238,75.195,-40.527,0
1539545106.369,49.805,-261.230,-969.238,70.801,31.738,0
1539545106.373,30.273,-49.316,-969.238,57.129,94.727,0
1539545106.377,51.270,-197.754,-969.238,77.637,48.828,0
1539545106.381,75.684,-280.273,-969.238,103.027,3.418,0
1539545106.385,62.500,-167.480,-969.238,91.309,33.691,0
1539545106.389,41.504,37.598,-969.238,72.754,112.793,0
1539545106.393,59.082,-236.816,-969.238,72.266,59.082,0
1539545106.397,64.453,-344.727,-969.238,72.754,-27.344,0
1539545106.400,43.945,6.348,-969.238,61.035,6.836,0
1539545106.404,63.477,98.145,-969.238,63.965,78.613,0
1539545106.408,85.938,-42.480,-969.238,66.895,90.820,0
1539545106.412,48.340,-47.852,-969.238,50.293,38.086,0
1539545106.416,22.949,113.281,-969.238,46.875,20.996,0
1539545106.420,45.410,144.043,-969.238,68.848,77.637,0
1539545106.424,55.176,119.141,-969.238,76.660,118.652,0
1539545106.428,53.223,125.977,-969.238,60.547,69.824,0
1539545106.432,51.270,138.184,-969.238,56.641,8.301,0
1539545106.436,43.457,136.719,-969.238,55.176,50.293,0
1539545106.439,31.738,32.227,-969.238,68.359,98.145,0
1539545106.443,33.203,-51.758,-969.238,72.266,54.688,0
1539545106.447,41.992,-17.578,-969.238,62.012,-5.371,0
1539545106.451,35.645,-8.301,-969.238,57.129,21.973,0
1539545106.455,20.996,-85.449,-969.238,65.918,77.148,0
1539545106.459,28.320,129.395,-969.238,80.566,92.285,0
1539545106.463,57.129,292.480,-969.238,65.918,42.969,0
1539545106.467,54.688,153.809,-969.238,50.781,23.438,0
1539545106.471,29.297,123.047,-969.238,30.273,70.312,0
1539545106.475,34.180,163.574,-969.238,30.273,101.562,0
1539545106.479,54.199,131.348,-969.238,52.246,49.316,0
1539545106.482,69.336,33.203,-969.238,66.406,-27.832,0
1539545106.486,52.246,-29.785,-969.238,62.988,15.137,0
1539545106.490,24.414,32.227,-969.238,52.734,93.262,0
1539545106.494,34.668,131.348,-969.238,52.734,57.129,0
1539545106.498,58.594,-87.891,-969.238,63.477,-36.621,0
1539545106.502,45.898,-191.406,-969.238,57.617,-12.695,0
1539545106.506,31.738,142.578,-969.238,66.895,69.824,0
1539545106.510,48.828,161.621,-969.238,72.266,69.824,0
1539545106.514,50.781,12.695,-969.238,71.777,12.695,0
1539545106.518,42.969,45.898,-969.238,62.988,27.344,0
1539545106.522,46.387,139.648,-969.238,35.645,99.609,0
1539545106.525,56.641,37.598,-969.238,48.828,91.797,0
1539545106.529,69.824,-113.770,-969.238,67.383,0.488,0
1539545106.533,53.711,-154.297,-969.238,67.383,-12.695,0
1539545106.537,21.484,-89.844,-969.238,57.617,59.082,0
1539545106.541,26.855,-38.086,-969.238,65.918,86.426,0
1539545106.545,56.152,-278.320,-969.238,90.820,13.672,0
1539545106.549,56.152,-188.477,-969.238,70.801,-27.832,0
1539545106.553,30.762,75.195,-969.238,49.805,51.270,0
1539545106.557,31.738,-104.492,-969.238,48.340,94.238,0
1539545106.561,39.551,-125.488,-969.238,49.316,72.266,0
1539545106.564,34.668,0.977,-969.238,56.641,29.297,0
1539545106.568,42.969,-67.383,-969.238,59.082,33.691,0
1539545106.572,53.711,-159.668,-969.238,60.547,95.215,0
1539545106.576,52.246,-188.477,-969.238,64.941,85.449,0
1539545106.580,60.059,-243.652,-969.238,77.148,18.066,0
1539545106.584,53.711,-199.219,-969.238,70.312,42.969,0
1539545106.588,40.527,-270.996,-969.238,49.316,84.473,0
1539545106.592,40.039,-348.145,-969.238,46.387,83.496,0
1539545106.596,45.410,-96.680,-969.238,55.176,34.668,0
1539545106.600,47.363,-22.461,-969.238,54.199,18.555,0
1539545106.604,41.016,-131.836,-969.238,56.641,83.496,0
1539545106.607,42.480,-100.586,-969.238,68.848,112.305,0
1539545106.611,57.617,-21.973,-969.238,64.453,64.941,0
1539545106.615,58.105,-212.402,-969.238,47.363,-8.789,0
1539545106.619,31.738,-227.539,-969.238,42.969,18.066,0
1539545106.623,14.648,-33.203,-969.238,50.293,108.398,0
1539545106.627,31.738,-185.547,-969.238,56.641,77.637,0
1539545106.631,49.316,-373.047,-969.238,60.547,-0.977,0
1539545106.635,47.363,-470.215,-969.238,60.059,7.812,0
1539545106.639,37.598,-288.574,-969.238,63.477,78.125,0
1539545106.643,25.879,-3.418,-969.238,45.410,126.465,0
1539545106.647,31.250,-185.547,-969.238,46.875,59.082,0
1539545106.650,33.691,-248.535,-969.238,60.547,45.898,0
1539545106.654,27.344,-89.355,-969.238,56.641,120.117,0
1539545106.658,23.926,-57.617,-969.238,48.828,153.320,0
1539545106.662,31.250,-232.910,-969.238,45.410,82.031,0
1539545106.666,28.809,-277.344,-969.238,48.340,35.156,0
1539545106.670,18.555,-192.871,-969.238,41.992,78.613,0
1539545106.674,9.766,-239.746,-969.238,38.086,121.582,0
1539545106.678,3.418,-431.641,-969.238,44.922,43.945,0
1539545106.682,6.836,-384.766,-969.238,23.438,-15.137,0
1539545106.686,-17.090,-114.258,-969.238,1.953,61.035,0
1539545106.689,-39.062,-63.965,-969.238,-9.766,114.258,0
1539545106.693,-33.203,-300.781,-969.238,-11.719,47.852,0
1539545106.697,-23.438,-363.281,-969.238,-4.395,-31.738,0
1539545106.701,-57.617,3.906,-969.238,-32.227,25.391,0
1539545106.705,-98.633,56.152,-969.238,-66.406,110.352,0
1539545106.709,-84.473,-36.621,-969.238,-69.824,98.145,0
1539545106.713,-83.496,-24.414,-969.238,-71.777,21.973,0
1539545106.717,-110.840,66.895,-969.238,-87.891,33.691,0
1539545106.721,-107.422,-64.941,-969.238,-106.445,87.402,0
1539545106.725,-106.445,-70.801,-969.238,-106.445,110.840,0
1539545106.729,-110.352,-1.465,-969.238,-99.121,48.340,0
1539545106.732,-117.188,-36.133,-969.238,-103.516,-11.719,0
1539545106.736,-122.070,-26.855,-969.238,-104.004,38.574,0
1539545106.740,-119.629,-72.266,-969.238,-106.934,91.797,0
1539545106.744,-112.305,-9.766,-969.238,-100.586,82.031,0
1539545106.748,-105.957,-15.625,-969.238,-95.703,26.855,0
1539545106.752,-84.961,-139.648,-969.238,-75.684,46.387,0
1539545106.756,-83.008,-289.062,-969.238,-47.852,85.449,0
1539545106.760,-83.008,-71.777,-969.238,-51.758,75.195,0
1539545106.764,-46.875,22.949,-969.238,-53.711,25.391,0
1539545106.768,-41.992,-160.645,-969.238,-41.016,25.391,0
1539545106.772,-37.598,-155.762,-969.238,-15.625,84.961,0
1539545106.775,-31.250,56.641,-969.238,-13.184,108.887,0
1539545106.779,-27.832,161.621,-969.238,2.930,55.664,0
1539545106.783,-4.395,-65.430,-969.238,12.695,10.742,0
1539545106.787,3.418,-166.016,-969.238,7.324,53.223,0
1539545106.791,10.254,151.855,-969.238,17.090,99.121,0
1539545106.795,32.715,174.805,-969.238,35.645,36.133,0
1539545106.799,45.410,59.570,-969.238,45.410,-12.207,0
1539545106.803,42.480,131.836,-969.238,42.480,44.922,0
1539545106.807,46.875,199.707,-969.238,44.922,94.727,0
1539545106.811,53.711,133.301,-969.238,63.965,47.852,0
1539545106.814,37.109,-118.652,-969.238,75.195,-46.387,0
1539545106.818,32.227,-76.172,-969.238,75.195,-23.438,0
1539545106.822,46.387,221.680,-969.238,94.727,60.547,0
1539545106.826,58.105,153.809,-969.238,109.375,39.551,0
1539545106.830,65.918,-112.793,-969.238,91.309,-63.477,0
1539545106.834,57.129,47.363,-969.238,76.660,-63.965,0
1539545106.838,49.316,242.188,-969.238,97.168,21.484,0
1539545106.842,65.918,142.578,-969.238,107.422,40.527,0
1539545106.846,94.727,27.344,-969.238,100.098,-38.086,0
1539545106.850,93.750,150.879,-969.238,101.562,-76.172,0
1539545106.854,74.707,277.344,-969.238,108.887,-24.414,0
1539545106.857,65.430,248.535,-969.238,108.398,10.742,0
1539545106.861,71.777,100.586,-969.238,107.910,-61.035,0
1539545106.865,78.613,87.891,-969.238,102.539,-112.793,0
1539545106.869,71.777,338.867,-969.238,105.469,-48.828,0
1539545106.873,62.500,198.730,-969.238,118.164,-38.086,0
1539545106.877,58.105,81.055,-969.238,101.074,-70.312,0
1539545106.881,64.453,365.723,-969.238,93.262,-110.352,0
1539545106.885,58.105,419.922,-969.238,105.469,-94.727,0
1539545106.889,53.223,369.141,-969.238,97.656,-23.438,0
1539545106.893,60.547,431.152,-969.238,94.727,-14.160,0
1539545106.897,67.871,415.039,-969.238,100.098,-84.473,0
1539545106.900,74.707,358.398,-969.238,108.887,-92.773,0
1539545106.904,60.547,372.559,-969.238,107.910,-51.758,0
1539545106.908,50.293,416.992,-969.238,97.168,-34.668,0
1539545106.912,57.129,458.008,-969.238,98.145,-76.172,0
1539545106.916,47.363,568.848,-969.238,116.211,-84.473,0
1539545106.920,47.363,505.859,-969.238,98.633,-30.273,0
1539545106.924,56.152,673.340,-969.238,67.871,22.949,0
1539545106.928,47.852,904.785,-969.238,74.707,12.695,0
1539545106.932,52.246,735.352,-969.238,87.402,-52.246,0
1539545106.936,49.805,758.789,-969.238,64.941,12.207,0
1539545106.939,46.875,921.387,-969.238,53.711,98.145,0
1539545106.943,78.613,875.977,-969.238,67.383,73.730,0
1539545106.947,79.102,772.461,-969.238,60.059,19.531,0
1539545106.951,60.059,810.547,-969.238,58.594,48.340,0
1539545106.955,62.500,818.848,-969.238,73.730,123.047,0
1539545106.959,58.594,817.383,-969.238,73.730,162.109,0
1539545106.963,65.918,658.203,-969.238,84.473,70.801,0
1539545106.967,68.848,665.527,-969.238,80.078,42.480,0
1539545106.971,57.617,983.887,-969.238,56.152,155.273,0
1539545106.975,62.012,-978.027,-969.238,58.105,204.590,0
1539545106.979,65.918,880.371,-968.262,77.637,120.605,0
1539545106.982,61.035,835.449,-971.191,89.355,71.289,0
1539545106.986,52.246,946.289,-966.309,69.336,162.109,0
1539545106.990,54.199,879.395,-948.730,62.012,209.961,0
1539545106.994,65.918,729.980,-963.379,77.148,153.320,0
1539545106.998,69.824,734.375,-971.680,80.566,101.074,0
1539545107.002,57.617,684.570,-968.262,83.008,137.695,0
1539545107.006,48.340,615.723,-968.262,91.309,198.242,0
1539545107.010,65.430,496.582,-971.191,76.172,169.922,0
1539545107.014,71.289,620.605,-960.449,47.852,121.094,0
1539545107.018,57.129,760.742,-936.523,41.992,130.371,0
1539545107.022,51.270,648.438,-953.613,50.293,181.152,0
1539545107.025,53.711,674.316,-872.070,54.688,210.449,0
1539545107.029,54.199,739.258,-759.766,58.594,161.621,0
1539545107.033,42.480,712.891,-727.051,68.359,127.441,0
1539545107.037,35.645,648.926,-724.609,85.449,181.152,0
1539545107.041,41.992,630.859,-704.102,68.359,207.031,0
1539545107.045,50.781,634.277,-669.922,44.922,151.855,0
1539545107.049,46.875,531.738,-771.973,57.617,108.398,0
1539545107.053,46.875,381.348,-878.906,71.289,155.762,0
1539545107.057,37.598,350.098,-890.625,59.570,185.059,0
1539545107.061,30.762,568.359,-710.449,45.410,157.227,0
1539545107.064,43.945,563.965,-658.203,46.875,97.168,0
1539545107.068,32.227,500.488,-658.691,59.570,130.371,0
1539545107.072,14.160,541.504,-540.527,73.242,217.285,0
1539545107.076,21.484,497.070,-559.082,76.172,204.590,0
1539545107.080,36.133,426.758,-665.039,60.059,120.605,0
1539545107.084,44.922,429.199,-666.016,34.668,119.141,0
1539545107.088,28.809,511.719,-558.105,22.461,195.801,0
1539545107.092,15.625,529.297,-490.234,45.410,214.844,0
1539545107.096,29.297,333.984,-703.613,45.898,140.625,0
1539545107.100,38.086,115.723,-957.031,37.598,105.469,0
1539545107.104,30.273,304.199,-796.875,51.270,166.016,0
1539545107.107,35.645,521.973,-536.133,54.199,223.145,0
1539545107.111,44.922,393.555,-606.445,62.012,192.383,0
1539545107.115,32.227,322.754,-698.730,73.242,118.164,0
1539545107.119,21.484,438.965,-579.590,57.617,134.277,0
1539545107.123,20.020,523.438,-421.387,28.809,209.473,0
1539545107.127,36.621,411.621,-506.348,36.133,191.406,0
1539545107.131,52.734,254.883,-717.773,54.688,102.539,0
1539545107.135,43.945,343.262,-655.273,46.875,127.930,0
1539545107.139,33.203,485.352,-477.539,58.105,195.801,0
1539545107.143,42.969,229.980,-717.773,77.637,159.180,0
1539545107.147,51.270,120.605,-925.293,56.152,76.660,0
1539545107.150,33.691,377.441,-729.004,21.484,58.105,0
1539545107.154,20.508,446.777,-597.656,25.391,116.211,0
1539545107.158,27.344,344.238,-688.477,46.387,142.578,0
1539545107.162,29.785,304.688,-780.762,43.945,71.289,0
1539545107.166,24.902,433.105,-649.902,41.992,46.387,1
1539545107.170,35.645,463.379,-563.965,58.594,107.910,0
1539545107.174,34.668,403.809,-588.867,70.312,142.090,0
1539545107.178,27.832,400.879,-618.652,55.664,92.773,0
1539545107.182,22.461,462.891,-549.805,45.898,48.828,0
1539545107.186,17.578,467.285,-484.863,65.430,88.867,0
1539545107.189,19.531,362.793,-585.938,71.289,125.000,0
1539545107.193,13.184,318.848,-680.664,64.453,86.914,0
1539545107.197,16.113,333.008,-727.051,49.805,6.836,0
1539545107.201,28.320,368.652,-691.895,24.414,24.414,0
1539545107.205,34.668,289.551,-782.715,36.621,70.312,0
1539545107.209,17.090,462.402,-637.695,39.551,81.543,0
1539545107.213,19.043,621.094,-446.777,44.434,22.461,0
1539545107.217,27.832,496.094,-527.344,48.340,8.789,0
1539545107.221,15.137,473.633,-502.930,25.879,67.871,0
1539545107.225,6.348,604.004,-312.500,30.273,117.188,0
1539545107.229,18.555,590.820,-290.039,40.527,78.125,0
1539545107.232,21.973,477.051,-411.621,32.227,20.996,0
1539545107.236,13.184,438.477,-442.871,34.180,63.477,0
1539545107.240,16.113,421.387,-464.844,40.527,78.613,0
1539545107.244,26.367,569.336,-291.504,38.574,50.781,0
1539545107.248,23.926,472.168,-335.938,45.410,13.184,0
1539545107.252,8.789,310.547,-493.164,62.988,-2.930,0
1539545107.256,-5.859,600.586,-137.207,38.574,46.875,0
1539545107.260,2.441,679.688,77.637,14.160,75.684,0
1539545107.264,21.484,534.180,-22.461,23.926,12.695,0
1539545107.268,21.484,598.633,94.238,44.922,40.039,0
1539545107.272,3.906,691.895,312.012,50.293,123.535,0
1539545107.275,4.883,555.664,245.117,40.039,99.609,0
1539545107.279,22.461,472.656,173.828,39.062,42.969,0
1539545107.283,22.949,394.531,88.379,45.410,14.648,0
1539545107.287,4.883,473.633,197.754,38.086,74.219,0
1539545107.291,0.977,607.910,448.242,23.438,134.277,0
1539545107.295,20.508,297.363,137.207,35.156,34.668,0
1539545107.299,12.695,415.527,218.750,29.297,5.859,0
1539545107.303,-0.977,693.848,640.137,28.809,85.938,0
1539545107.307,14.648,442.871,479.980,34.668,85.938,0
1539545107.311,20.508,367.676,389.160,41.504,37.598,0
1539545107.314,8.301,538.086,585.449,50.293,6.348,0
1539545107.318,14.648,430.664,526.855,56.152,0.000,0
1539545107.322,12.695,340.820,427.734,42.969,41.504,0
1539545107.326,6.348,442.383,537.598,26.855,72.754,0
1539545107.330,27.344,294.434,335.938,41.992,-19.531,0
1539545107.334,31.738,335.938,311.035,49.316,-20.020,0
1539545107.338,6.836,339.844,367.676,38.574,70.312,0
1539545107.342,-0.977,212.891,224.609,31.250,86.426,0
1539545107.346,3.418,380.371,351.562,32.227,20.020,0
1539545107.350,5.371,358.887,347.168,47.852,-33.691,0
1539545107.354,7.812,288.574,289.062,55.176,31.250,0
1539545107.357,9.277,283.203,274.902,43.945,62.500,0
1539545107.361,16.602,274.414,255.371,33.691,17.090,0
1539545107.365,33.691,70.801,-10.254,42.969,-39.551,0
1539545107.369,22.461,49.805,-100.098,48.340,7.812,0
1539545107.373,12.207,169.434,14.160,44.922,70.312,0
1539545107.377,25.879,-18.066,-218.750,45.410,17.090,0
1539545107.381,23.438,-177.734,-481.445,28.320,-53.223,0
1539545107.385,4.883,-304.199,-718.750,17.090,-66.406,0
1539545107.389,-0.488,-200.684,-704.590,29.785,-34.180,0
1539545107.393,10.254,-13.184,-533.691,28.809,-29.785,0
1539545107.397,26.367,-212.891,-762.695,28.320,-106.934,0
1539545107.400,31.738,-310.547,-953.125,36.133,-129.883,0
1539545107.404,20.020,-206.055,-937.988,35.645,-74.707,0
1539545107.408,6.348,-237.793,-964.844,33.203,-66.406,0
1539545107.412,20.508,-457.031,-971.680,50.293,-164.062,0
1539545107.416,22.949,-579.102,-968.262,52.246,-253.906,0
1539545107.420,-14.160,-628.418,-969.238,50.781,-255.859,0
1539545107.424,-32.227,-894.531,-969.238,68.848,-324.219,0
1539545107.428,-23.926,-988.281,-969.238,64.941,-502.930,0
1539545107.432,-22.461,-932.129,-969.238,56.641,-613.770,0
1539545107.436,-22.461,-751.953,-969.238,67.383,-523.438,0
1539545107.439,-13.672,-625.488,-969.238,62.988,-441.895,0
1539545107.443,-8.301,-672.363,-969.238,31.738,-460.449,0
1539545107.447,0.000,-610.352,-969.238,29.297,-495.605,0
1539545107.451,2.441,-395.996,-969.238,36.621,-438.965,0
1539545107.455,3.906,-318.359,-969.238,24.902,-349.121,0
1539545107.459,10.254,-326.172,-969.238,33.203,-327.637,0
1539545107.463,20.996,-202.148,-969.238,43.457,-354.980,0
1539545107.467,37.598,-96.191,-969.238,40.527,-350.586,0
1539545107.471,40.039,-125.977,-969.238,49.805,-266.602,0
1539545107.475,32.227,-276.855,-969.238,41.504,-241.699,0
1539545107.479,42.969,-172.852,-969.238,28.809,-274.902,0
1539545107.482,50.781,103.027,-969.238,47.852,-270.996,0
1539545107.486,43.457,103.027,-969.238,51.758,-218.262,0
1539545107.490,41.016,109.863,-969.238,38.574,-142.578,0
1539545107.494,44.922,231.934,-969.238,51.270,-140.625,0
1539545107.498,57.129,237.305,-969.238,65.918,-188.965,0
1539545107.502,59.082,203.125,-969.238,73.242,-158.203,0
1539545107.506,38.574,246.582,-969.238,59.082,-91.309,0
1539545107.510,32.715,361.328,-969.238,47.852,-74.219,0
1539545107.514,47.363,355.469,-969.238,54.688,-130.859,0
1539545107.518,50.781,132.812,-969.238,49.805,-163.086,0
1539545107.522,39.551,147.461,-969.238,44.922,-104.004,0
1539545107.525,33.203,470.215,-969.238,38.574,-53.223,0
1539545107.529,44.922,398.926,-969.238,37.598,-99.121,0
1539545107.533,47.852,254.395,-969.238,36.621,-125.977,0
1539545107.537,39.062,352.051,-969.238,50.293,-58.105,0
1539545107.541,27.344,466.309,-969.238,43.457,1.953,0
1539545107.545,19.043,481.934,-968.750,26.855,-27.832,0
1539545107.549,36.133,388.672,-965.332,32.227,-83.008,0
1539545107.553,32.227,443.848,-979.004,35.156,-32.715,0
1539545107.557,17.090,534.180,-922.852,39.551,43.945,0
