timestamps,TP9,AF7,AF8,TP10,Right AUX,Marker0
1539620257.169,-168.945,92.773,60.547,-251.953,34.668,0
1539620257.173,-163.574,92.285,56.152,-252.930,23.438,0
1539620257.176,-164.062,90.820,55.176,-257.324,26.855,0
1539620257.180,-167.969,84.961,56.641,-257.812,39.551,0
1539620257.184,-165.039,79.590,57.129,-250.488,35.156,0
1539620257.188,-159.180,78.613,57.129,-244.141,5.859,0
1539620257.192,-159.180,75.195,53.711,-247.559,61.035,0
1539620257.196,-149.902,71.289,53.223,-249.512,97.656,0
1539620257.200,-141.602,69.824,52.246,-242.188,41.016,0
1539620257.204,-139.648,62.012,53.223,-235.352,12.207,0
1539620257.208,-132.324,61.035,52.246,-230.957,40.039,0
1539620257.212,-125.000,62.988,46.387,-229.980,31.738,0
1539620257.215,-112.793,56.152,46.387,-216.309,27.832,0
1539620257.219,-101.074,48.340,52.246,-200.195,28.320,0
1539620257.223,-93.750,42.480,53.711,-194.336,38.086,0
1539620257.227,-85.449,36.621,49.316,-187.988,16.602,0
1539620257.231,-69.824,34.668,42.480,-185.059,-42.969,0
1539620257.235,-54.688,28.809,41.016,-168.945,25.879,0
1539620257.239,-41.992,21.973,41.992,-154.785,62.012,0
1539620257.243,-22.949,17.578,37.598,-142.578,-21.484,0
1539620257.247,-8.789,9.277,38.574,-129.395,-43.457,0
1539620257.251,7.324,5.371,39.551,-116.211,18.555,0
1539620257.255,23.926,5.859,34.180,-103.516,53.711,0
1539620257.258,34.180,4.883,33.691,-94.238,27.344,0
1539620257.262,39.062,-0.977,35.156,-83.984,-10.254,0
1539620257.266,43.945,-4.395,35.156,-70.801,15.137,0
1539620257.270,52.246,-5.859,32.715,-57.617,46.387,0
1539620257.274,55.664,-7.812,28.320,-49.805,46.875,0
1539620257.278,61.523,-6.836,27.832,-48.828,68.848,0
1539620257.282,70.801,-8.789,30.273,-41.992,61.523,0
1539620257.286,77.148,-9.766,29.297,-31.250,45.898,0
1539620257.290,83.984,-10.742,23.926,-28.809,57.617,0
1539620257.294,86.426,-10.254,26.855,-31.250,43.457,0
1539620257.298,91.309,-8.301,29.785,-24.902,-10.742,0
1539620257.301,93.750,-8.301,28.809,-17.578,-40.527,0
1539620257.305,97.168,-7.324,26.367,-10.254,-41.016,0
1539620257.309,101.562,-5.371,26.367,1.953,-0.977,0
1539620257.313,106.445,-1.465,27.344,8.789,16.113,0
1539620257.317,104.004,-2.441,25.879,7.324,13.672,0
1539620257.321,98.633,-3.906,20.020,15.137,46.387,0
1539620257.325,99.609,-1.465,20.508,19.043,3.906,0
1539620257.329,102.051,0.488,23.438,17.578,-33.203,0
1539620257.333,103.027,2.441,21.973,16.113,27.832,0
1539620257.337,107.422,5.371,22.461,12.207,72.266,0
1539620257.340,107.910,9.277,23.438,19.043,26.855,0
1539620257.344,105.469,2.930,24.414,21.973,-10.742,0
1539620257.348,105.469,-0.488,20.508,25.879,3.906,0
1539620257.352,104.004,8.789,20.020,28.809,-3.418,0
1539620257.356,103.027,13.184,24.902,20.020,25.879,0
1539620257.360,101.562,12.207,25.879,25.391,19.531,0
1539620257.364,96.680,10.742,26.367,32.715,31.250,0
1539620257.368,91.797,12.207,26.855,28.809,16.602,0
1539620257.372,92.285,12.695,25.391,24.902,36.133,0
1539620257.376,93.750,15.137,26.855,24.414,49.805,0
1539620257.380,90.820,16.602,28.320,34.668,39.551,0
1539620257.383,88.867,15.137,28.809,33.691,57.129,0
1539620257.387,87.402,14.648,27.344,29.297,29.785,0
1539620257.391,89.355,15.625,26.855,32.715,31.738,0
1539620257.395,89.355,14.160,25.879,29.785,71.777,0
1539620257.399,87.402,15.625,27.344,29.297,49.316,0
1539620257.403,83.984,16.602,28.809,29.297,19.043,0
1539620257.407,82.520,20.508,29.785,30.762,13.672,0
1539620257.411,80.566,19.043,27.832,30.762,20.996,0
1539620257.415,74.707,17.578,24.902,26.855,56.641,0
1539620257.419,71.289,20.996,22.949,21.973,110.352,0
1539620257.423,75.684,22.461,23.926,19.043,81.543,0
1539620257.426,75.684,23.438,26.855,13.672,24.414,0
1539620257.430,67.871,24.414,25.391,13.184,70.312,0
1539620257.434,65.918,26.367,21.973,16.113,126.465,0
1539620257.438,66.895,26.367,22.949,13.184,74.219,0
1539620257.442,62.012,27.344,22.949,9.766,27.344,0
1539620257.446,63.477,22.461,22.949,20.508,56.152,0
1539620257.450,66.406,22.949,25.391,22.461,99.609,0
1539620257.454,59.082,29.297,25.879,9.277,46.875,0
1539620257.458,56.152,31.738,25.391,11.719,20.020,0
1539620257.462,60.547,31.738,23.926,20.020,42.969,0
1539620257.465,60.547,29.297,24.902,15.625,23.438,0
1539620257.469,57.617,28.320,28.809,12.207,60.547,0
1539620257.473,57.129,23.438,32.227,12.695,84.961,0
1539620257.477,55.176,23.438,31.738,13.184,92.285,0
1539620257.481,52.246,21.484,29.297,9.766,39.551,0
1539620257.485,48.828,19.531,28.809,6.348,64.453,0
1539620257.489,47.363,23.926,30.762,12.207,61.523,0
1539620257.493,45.898,25.391,29.785,12.207,-11.230,0
1539620257.497,47.852,25.879,30.273,9.277,12.695,0
1539620257.501,53.711,26.367,32.715,14.160,4.395,0
1539620257.505,53.711,24.902,31.738,20.020,32.227,0
1539620257.508,51.270,25.391,28.320,21.484,73.730,0
1539620257.512,49.316,24.902,27.832,24.902,26.855,0
1539620257.516,42.969,24.414,30.273,22.949,31.738,0
1539620257.520,42.969,25.879,28.320,23.926,30.273,0
1539620257.524,43.945,26.367,27.832,29.785,36.621,0
1539620257.528,36.621,24.902,28.809,23.438,88.867,0
1539620257.532,39.062,26.855,28.809,19.043,31.738,0
1539620257.536,53.711,30.273,27.344,20.020,50.781,0
1539620257.540,60.547,30.762,23.438,27.832,55.664,0
1539620257.544,43.457,28.809,27.344,27.344,-2.441,0
1539620257.548,33.203,22.949,34.180,21.484,39.062,0
1539620257.551,38.086,20.508,41.016,28.809,61.523,0
1539620257.555,34.668,18.066,41.992,28.320,-13.184,0
1539620257.559,38.086,14.160,41.504,33.691,-21.973,0
1539620257.563,41.992,17.090,43.457,37.109,7.324,0
1539620257.567,47.363,20.996,42.480,33.203,20.996,0
1539620257.571,50.781,21.484,40.527,37.109,64.941,0
1539620257.575,46.387,19.531,39.062,27.832,56.152,0
1539620257.579,47.363,20.508,39.062,15.625,2.441,0
1539620257.583,44.922,23.926,35.156,19.043,46.387,0
1539620257.587,40.039,24.414,34.668,23.438,37.109,0
1539620257.590,27.344,24.414,38.086,26.367,12.207,0
1539620257.594,20.996,25.391,38.574,25.391,9.277,0
1539620257.598,20.508,27.344,38.086,21.484,-13.184,0
1539620257.602,14.648,25.879,40.039,17.578,22.461,0
1539620257.606,17.578,24.902,41.016,22.949,23.926,0
1539620257.610,14.160,20.996,41.992,30.273,44.922,0
1539620257.614,12.695,19.531,43.457,24.414,12.695,0
1539620257.618,20.996,29.785,40.527,22.949,-3.906,0
1539620257.622,22.949,31.738,38.086,24.902,95.215,0
1539620257.626,22.949,30.762,39.551,20.996,123.047,0
1539620257.630,23.438,31.738,40.039,24.414,4.883,0
1539620257.633,23.438,31.738,39.062,20.996,-10.742,0
1539620257.637,25.391,34.668,36.621,21.484,72.754,0
1539620257.641,26.367,32.227,35.156,20.508,103.516,0
1539620257.645,26.855,29.785,33.691,18.555,93.262,0
1539620257.649,27.344,30.273,33.203,22.949,81.543,0
1539620257.653,27.344,31.738,38.086,21.484,49.316,0
1539620257.657,29.785,34.180,40.527,19.531,-28.320,0
1539620257.661,33.691,38.574,37.598,14.160,17.578,0
1539620257.665,34.180,37.598,37.598,16.602,74.219,0
1539620257.669,29.297,26.855,40.527,12.695,28.809,0
1539620257.673,23.926,30.273,36.621,12.207,21.484,0
1539620257.676,25.879,41.992,27.832,18.555,11.230,0
1539620257.680,20.996,46.875,25.879,1.465,9.766,0
1539620257.684,11.230,48.828,24.414,-14.648,-4.883,0
1539620257.688,10.742,48.828,22.949,-10.742,-32.715,0
1539620257.692,8.789,53.223,21.973,-15.137,50.781,0
1539620257.696,7.324,52.246,21.484,-20.508,53.711,0
1539620257.700,3.906,50.293,17.578,-16.602,6.836,0
1539620257.704,4.883,49.805,19.531,-15.137,0.000,0
1539620257.708,12.207,47.363,23.926,-10.742,12.207,0
1539620257.712,16.113,45.898,20.020,-7.324,26.367,0
1539620257.715,14.160,42.480,20.996,-7.324,56.152,0
1539620257.719,14.648,41.504,24.902,0.000,99.609,0
1539620257.723,15.625,40.039,25.879,4.883,79.590,0
1539620257.727,17.578,41.016,28.809,2.441,49.316,0
1539620257.731,17.578,44.434,29.785,4.395,19.531,0
1539620257.735,18.555,41.504,27.832,11.230,11.230,0
1539620257.739,23.926,41.504,28.809,16.113,66.406,0
1539620257.743,25.879,44.922,27.832,23.438,49.316,0
1539620257.747,28.320,45.898,28.809,24.902,2.441,0
1539620257.751,29.785,45.410,31.738,25.391,10.254,0
1539620257.755,24.414,41.992,32.715,28.320,6.836,0
1539620257.758,21.973,41.504,35.645,24.414,51.270,0
1539620257.762,24.414,44.434,35.156,25.879,33.203,0
1539620257.766,25.391,41.992,36.133,27.832,3.418,0
1539620257.770,28.809,33.203,35.156,27.832,67.871,0
1539620257.774,33.691,36.133,33.691,30.762,106.445,0
1539620257.778,32.715,41.992,35.645,32.715,66.895,0
1539620257.782,35.645,42.480,36.133,27.832,16.602,0
1539620257.786,37.598,41.504,34.668,27.832,46.875,0
1539620257.790,20.508,38.086,37.109,31.738,40.039,0
1539620257.794,12.207,39.551,37.598,33.691,40.039,0
1539620257.798,11.230,38.086,35.156,35.645,105.469,0
1539620257.801,12.207,34.668,38.574,36.133,53.711,0
1539620257.805,18.066,38.086,40.039,34.180,-3.906,0
1539620257.809,17.578,40.039,36.133,36.133,41.504,0
1539620257.813,22.461,41.016,36.133,43.945,99.609,0
1539620257.817,21.484,39.062,33.691,38.574,104.004,0
1539620257.821,21.973,37.598,33.691,34.180,45.898,0
1539620257.825,28.809,42.480,36.621,41.992,4.883,0
1539620257.829,28.809,44.434,35.156,39.551,0.000,0
1539620257.833,28.809,41.992,34.180,41.504,33.203,0
1539620257.837,30.273,43.457,34.668,41.504,55.176,0
1539620257.840,33.203,44.922,34.668,38.574,13.184,0
1539620257.844,32.227,42.480,34.180,42.969,-14.160,0
1539620257.848,31.738,41.992,31.250,38.574,6.348,0
1539620257.852,33.691,42.480,27.344,33.203,-8.301,0
1539620257.856,30.273,41.016,28.809,36.133,-6.348,0
1539620257.860,27.832,38.086,29.297,33.691,49.316,0
1539620257.864,28.320,38.086,27.832,31.250,38.574,0
1539620257.868,31.250,39.551,26.367,34.668,19.043,0
1539620257.872,30.762,38.086,28.320,35.645,10.254,0
1539620257.876,29.785,37.109,31.250,33.691,30.762,0
1539620257.880,35.156,36.621,31.738,40.527,69.336,0
1539620257.883,43.457,39.551,32.227,41.504,42.969,0
1539620257.887,36.621,39.551,30.273,37.598,19.043,0
1539620257.891,34.668,29.785,35.156,40.039,47.852,0
1539620257.895,36.621,32.227,37.109,39.062,54.199,0
1539620257.899,30.762,38.574,33.691,40.039,42.969,0
1539620257.903,31.738,40.039,32.715,41.504,33.203,0
1539620257.907,32.227,41.016,28.320,38.574,42.480,0
1539620257.911,33.691,40.039,30.273,33.203,28.809,0
1539620257.915,33.203,39.062,34.668,33.691,30.762,0
1539620257.919,30.762,37.109,32.715,35.645,80.566,0
1539620257.923,28.320,36.621,34.180,34.668,101.074,0
1539620257.926,24.414,35.645,31.738,33.691,33.203,0
1539620257.930,27.344,39.062,32.715,35.645,-7.812,0
1539620257.934,31.250,38.574,37.598,33.691,23.438,0
1539620257.938,29.785,33.691,31.738,29.297,76.660,0
1539620257.942,27.344,34.180,32.715,24.902,92.285,0
1539620257.946,27.344,35.156,37.109,26.367,73.242,0
1539620257.950,28.320,39.551,35.156,30.762,16.602,0
1539620257.954,28.809,39.062,34.180,32.715,12.695,0
1539620257.958,32.227,36.133,30.762,38.086,45.898,0
1539620257.962,31.250,38.086,33.203,39.551,41.016,0
1539620257.965,27.832,34.668,36.621,40.039,30.762,0
1539620257.969,31.250,34.668,36.133,40.527,35.156,0
1539620257.973,39.551,35.645,38.574,41.992,8.301,0
1539620257.977,36.133,35.156,39.062,46.387,-2.441,0
1539620257.981,31.250,34.180,38.086,42.480,46.875,0
1539620257.985,32.227,31.738,36.621,40.527,79.102,0
1539620257.989,32.715,32.227,35.645,40.527,50.781,0
1539620257.993,33.203,31.738,33.203,36.621,41.504,0
1539620257.997,32.715,29.297,36.621,40.039,101.074,0
1539620258.001,26.367,33.203,37.109,40.527,83.008,0
1539620258.005,25.879,29.785,32.715,41.992,67.871,0
1539620258.008,31.250,27.832,33.203,45.410,62.012,0
1539620258.012,33.691,38.086,33.691,47.852,68.359,0
1539620258.016,32.715,40.039,33.691,52.246,68.848,0
1539620258.020,31.738,41.016,34.180,54.199,106.445,0
1539620258.024,32.715,40.039,33.203,52.246,73.730,0
1539620258.028,33.691,38.574,33.203,51.758,54.688,0
1539620258.032,36.133,38.086,32.715,52.734,71.289,0
1539620258.036,30.273,38.574,32.227,49.316,27.832,0
1539620258.040,26.367,38.086,34.668,48.340,-13.184,0
1539620258.044,33.203,39.062,35.645,49.316,0.977,0
1539620258.048,31.250,39.062,33.203,44.434,24.902,0
1539620258.051,29.785,35.645,32.715,43.945,8.789,0
1539620258.055,35.156,34.668,32.227,50.293,19.043,0
1539620258.059,34.668,35.645,32.227,52.734,3.906,0
1539620258.063,32.227,38.574,34.180,49.805,21.973,0
1539620258.067,32.227,39.062,37.598,50.781,59.082,0
1539620258.071,33.691,39.062,37.109,52.734,89.355,0
1539620258.075,36.133,41.504,33.203,49.805,113.281,0
1539620258.079,31.738,41.016,35.156,48.340,30.273,0
1539620258.083,30.762,40.039,32.715,53.711,7.324,0
1539620258.087,36.133,42.480,32.227,49.316,3.418,0
1539620258.090,36.133,41.504,34.180,46.387,-49.805,0
1539620258.094,34.668,41.992,38.086,50.781,-18.066,0
1539620258.098,33.203,41.992,36.133,44.434,5.859,0
1539620258.102,33.203,41.016,31.738,46.387,23.438,0
1539620258.106,31.738,37.598,31.250,47.363,-4.883,0
1539620258.110,30.273,38.574,29.785,40.039,-8.789,1
1539620258.114,28.809,40.039,33.691,45.410,60.547,0
1539620258.118,24.902,40.527,31.250,47.852,110.352,0
1539620258.122,25.879,39.551,30.762,46.387,107.910,0
1539620258.126,28.320,37.109,37.109,45.410,10.254,0
1539620258.130,25.391,40.527,39.551,45.410,-5.371,0
1539620258.133,25.391,34.668,38.086,45.898,20.508,0
1539620258.137,29.785,34.180,37.109,50.293,59.570,0
1539620258.141,33.691,43.457,38.086,54.688,72.266,0
1539620258.145,31.738,41.992,38.574,55.176,45.410,0
1539620258.149,26.367,43.457,40.527,54.688,49.316,0
1539620258.153,25.391,43.945,40.039,51.270,16.113,0
1539620258.157,25.879,42.969,41.016,57.129,6.348,0
1539620258.161,27.832,42.969,41.992,58.105,-21.484,0
1539620258.165,31.738,42.480,40.039,52.246,53.711,0
1539620258.169,35.156,42.480,35.645,52.734,65.918,0
1539620258.173,29.785,42.480,35.645,55.664,12.695,0
1539620258.176,28.320,41.504,38.086,48.828,18.066,0
1539620258.180,37.598,40.039,38.086,45.898,19.043,0
1539620258.184,36.621,40.039,37.109,45.898,33.203,0
1539620258.188,27.832,39.551,41.016,49.805,27.832,0
1539620258.192,23.926,38.086,42.969,53.711,22.461,0
1539620258.196,19.531,39.062,37.109,51.758,34.668,0
1539620258.200,23.926,42.480,33.691,51.270,14.160,0
1539620258.204,29.785,41.992,36.133,49.805,12.207,0
1539620258.208,24.902,38.086,34.180,52.734,22.949,0
1539620258.212,24.902,41.016,35.156,49.805,37.109,0
1539620258.215,27.344,42.969,35.645,45.410,43.457,0
1539620258.219,24.414,40.527,32.227,48.340,41.504,0
1539620258.223,25.879,40.039,34.668,41.016,47.852,0
1539620258.227,23.926,38.086,37.109,38.086,30.762,0
1539620258.231,20.508,32.227,33.691,41.992,0.000,0
1539620258.235,25.391,32.715,33.691,44.434,6.836,0
1539620258.239,22.949,35.645,35.645,41.992,39.551,0
1539620258.243,21.484,34.668,34.668,37.598,25.391,0
1539620258.247,22.949,29.785,35.156,39.551,36.133,0
1539620258.251,20.020,31.250,35.156,39.062,57.129,0
1539620258.255,23.926,36.621,34.180,36.133,67.871,0
1539620258.258,27.832,39.062,35.156,34.180,67.383,0
1539620258.262,28.809,37.598,34.668,29.297,55.176,0
1539620258.266,31.250,38.086,32.227,31.250,6.836,0
1539620258.270,27.832,37.598,29.785,32.227,-7.324,0
1539620258.274,26.367,39.551,31.738,31.250,58.594,0
1539620258.278,27.832,39.551,34.668,34.668,83.984,0
1539620258.282,27.344,37.598,34.668,25.879,49.805,0
1539620258.286,29.297,40.527,36.621,25.879,24.902,0
1539620258.290,31.250,40.527,36.133,34.180,3.418,0
1539620258.294,29.297,39.062,32.715,30.273,0.977,0
1539620258.298,28.320,38.574,31.738,34.668,4.883,0
1539620258.301,28.809,38.574,34.180,34.180,45.410,0
1539620258.305,27.344,40.039,32.715,24.902,83.496,0
1539620258.309,30.273,39.551,34.668,29.785,105.469,0
1539620258.313,31.738,38.086,37.109,33.691,41.504,0
1539620258.317,30.762,37.598,33.203,32.227,14.648,0
1539620258.321,30.273,38.574,35.645,34.180,24.902,0
1539620258.325,28.809,37.109,39.551,35.156,45.410,0
1539620258.329,35.156,36.133,38.086,38.086,85.449,0
1539620258.333,39.062,37.598,35.645,41.016,57.617,0
1539620258.337,33.203,37.109,36.621,41.504,85.938,0
1539620258.340,34.180,38.086,36.621,38.574,57.617,0
1539620258.344,34.668,38.574,35.156,36.133,55.176,0
1539620258.348,33.691,38.086,33.203,36.621,70.801,0
1539620258.352,34.668,36.621,31.738,37.109,71.289,0
1539620258.356,31.250,32.715,33.203,38.574,54.688,0
1539620258.360,28.809,30.762,34.668,35.645,23.438,0
1539620258.364,30.762,33.203,34.180,37.109,49.316,0
1539620258.368,23.438,30.762,32.715,37.598,21.484,0
1539620258.372,20.508,27.344,38.574,38.574,24.414,0
1539620258.376,30.273,27.832,36.133,42.480,30.273,0
1539620258.380,27.344,31.738,29.297,29.785,53.223,0
1539620258.383,24.902,41.504,30.273,23.926,99.609,0
1539620258.387,36.133,49.316,33.203,32.715,59.082,0
1539620258.391,34.668,52.246,34.668,33.691,2.441,0
1539620258.395,27.832,51.270,34.180,29.297,19.531,0
1539620258.399,26.855,48.828,33.203,31.738,36.621,0
1539620258.403,20.996,43.945,31.250,31.738,35.156,0
1539620258.407,26.855,40.039,34.668,32.715,31.250,0
1539620258.411,30.762,37.598,35.156,41.504,43.945,0
1539620258.415,27.344,38.574,30.273,42.969,24.902,0
1539620258.419,28.809,41.504,29.785,39.062,10.742,0
1539620258.423,27.832,42.480,33.203,41.992,21.973,0
1539620258.426,31.738,41.504,34.180,48.828,46.387,0
1539620258.430,36.621,40.039,35.156,48.828,37.598,0
1539620258.434,40.527,42.480,33.203,41.992,63.965,0
1539620258.438,44.922,44.922,28.320,41.016,77.148,0
1539620258.442,47.363,43.457,26.367,47.363,73.730,0
1539620258.446,40.039,41.016,30.762,46.875,34.180,0
1539620258.450,37.109,42.480,33.203,44.922,-4.395,0
1539620258.454,36.621,41.504,30.762,48.340,77.637,0
1539620258.458,33.691,38.574,30.762,46.387,46.875,0
1539620258.462,36.133,39.062,33.203,46.387,-35.645,0
1539620258.465,37.109,39.551,35.156,45.410,56.641,0
1539620258.469,34.668,41.016,35.156,46.875,97.168,0
1539620258.473,35.156,41.992,34.668,46.875,55.664,0
1539620258.477,37.598,42.480,37.598,48.340,51.758,0
1539620258.481,34.668,42.969,36.133,49.316,35.645,0
1539620258.485,33.691,46.875,35.645,50.293,51.270,0
1539620258.489,35.645,44.922,37.598,51.270,19.043,0
1539620258.493,34.668,39.551,36.621,49.316,11.719,0
1539620258.497,37.598,39.062,37.109,49.805,34.180,0
1539620258.501,39.062,40.039,38.574,49.316,48.828,0
1539620258.505,34.668,41.504,34.180,50.781,49.316,0
1539620258.508,34.668,40.527,34.668,47.363,68.359,0
1539620258.512,39.551,43.945,38.086,41.504,85.449,0
1539620258.516,38.086,40.039,36.133,46.875,74.219,0
1539620258.520,38.574,33.691,36.621,50.293,9.766,0
1539620258.524,41.992,39.062,37.109,44.922,-73.730,0
1539620258.528,38.574,40.527,37.598,48.340,-25.391,0
1539620258.532,30.273,40.039,39.062,46.387,40.039,0
1539620258.536,30.273,41.992,37.598,40.527,11.230,0
1539620258.540,33.203,41.016,39.062,47.852,51.270,0
1539620258.544,34.180,39.062,39.062,47.852,42.480,0
1539620258.548,36.133,41.504,36.621,43.945,-9.277,0
1539620258.551,39.551,40.039,40.527,44.434,46.875,0
1539620258.555,40.039,37.598,40.527,39.551,54.199,0
1539620258.559,32.227,40.527,40.039,36.621,60.059,0
1539620258.563,25.879,40.527,43.457,42.480,91.309,0
1539620258.567,25.879,36.621,43.945,43.457,62.500,0
1539620258.571,26.855,36.133,41.504,40.039,31.738,0
1539620258.575,30.762,39.551,39.551,40.527,21.484,0
1539620258.579,32.715,38.086,39.551,45.898,34.180,0
1539620258.583,31.250,36.133,42.969,47.363,8.301,0
1539620258.587,29.785,41.504,39.551,39.062,8.789,0
1539620258.590,26.855,40.527,37.598,36.133,45.898,0
1539620258.594,25.391,39.551,41.992,38.086,16.113,0
1539620258.598,24.414,42.480,41.016,31.738,3.906,0
1539620258.602,19.531,41.992,41.504,29.785,29.297,0
1539620258.606,20.996,40.039,41.016,33.203,48.340,0
1539620258.610,27.832,40.527,41.016,33.203,82.520,0
1539620258.614,24.902,40.527,42.480,32.227,82.031,0
1539620258.618,23.926,41.016,43.945,32.715,77.148,0
1539620258.622,20.996,38.086,40.527,29.785,75.195,0
1539620258.626,19.043,36.621,38.086,27.832,67.871,0
1539620258.630,27.344,33.203,40.527,33.203,65.430,0
1539620258.633,30.762,31.250,40.039,38.574,34.668,0
1539620258.637,26.367,38.086,35.645,37.598,33.203,0
1539620258.641,25.391,40.039,39.062,37.109,48.828,0
1539620258.645,27.344,40.039,43.945,37.598,82.520,0
1539620258.649,25.391,41.016,41.016,36.621,34.180,0
1539620258.653,25.391,40.039,41.016,39.551,4.883,0
1539620258.657,26.367,35.645,40.039,38.086,37.598,0
1539620258.661,24.902,36.133,39.551,35.156,35.645,0
1539620258.665,26.855,38.086,37.109,37.109,41.504,0
1539620258.669,32.715,40.039,37.109,38.086,46.387,0
1539620258.673,32.227,40.527,37.109,42.480,54.688,0
1539620258.676,30.273,39.062,33.203,45.898,71.289,0
1539620258.680,30.762,37.598,32.227,42.480,23.926,0
1539620258.684,30.273,33.203,35.156,36.621,-16.113,0
1539620258.688,30.762,32.227,37.598,32.715,64.941,0
1539620258.692,29.785,35.156,36.133,34.180,44.922,0
1539620258.696,24.414,37.109,36.133,32.227,59.082,0
1539620258.700,25.879,36.621,36.621,33.203,72.754,0
1539620258.704,27.832,36.621,35.645,36.133,-9.766,0
1539620258.708,26.367,37.598,34.668,34.180,-28.809,0
1539620258.712,25.391,36.621,35.156,31.738,-32.227,0
1539620258.715,27.832,37.109,34.668,30.762,-46.387,0
1539620258.719,30.762,39.551,36.621,33.203,-14.648,0
1539620258.723,31.738,34.180,37.598,35.645,30.762,0
1539620258.727,29.785,36.621,37.598,39.062,20.020,0
1539620258.731,25.879,41.992,37.598,36.621,7.324,0
1539620258.735,25.879,37.109,34.180,36.133,37.598,0
1539620258.739,24.902,35.645,34.668,40.039,80.078,0
1539620258.743,21.973,37.109,38.574,36.133,60.059,0
1539620258.747,23.438,32.227,39.062,35.156,56.152,0
1539620258.751,17.578,29.785,38.574,34.180,54.688,0
1539620258.755,16.113,35.645,37.598,31.250,-0.488,0
1539620258.758,29.785,39.062,34.668,41.992,-8.301,0
1539620258.762,27.344,35.645,38.086,47.363,-4.395,0
1539620258.766,13.184,32.715,41.992,35.645,-0.977,0
1539620258.770,10.742,33.203,39.551,25.879,22.461,0
1539620258.774,14.160,30.762,41.016,29.785,-0.488,0
1539620258.778,7.812,31.738,44.434,35.645,25.391,0
1539620258.782,7.324,36.621,43.945,32.227,36.133,0
1539620258.786,12.695,37.109,43.945,29.297,3.418,0
1539620258.790,11.719,35.156,42.969,25.391,27.832,0
1539620258.794,13.184,36.621,41.992,26.367,48.828,0
1539620258.798,15.625,35.156,41.504,29.297,96.191,0
1539620258.801,20.508,32.715,40.039,27.832,115.723,0
1539620258.805,20.508,32.715,41.504,30.762,72.266,0
1539620258.809,17.578,35.156,38.574,30.762,38.086,0
1539620258.813,21.973,37.598,38.086,31.250,16.602,0
1539620258.817,25.879,33.691,40.039,38.086,56.152,0
1539620258.821,23.438,30.762,36.133,38.574,97.656,0
1539620258.825,27.344,34.668,37.109,41.992,55.176,0
1539620258.829,31.738,35.645,36.133,43.457,8.301,0
1539620258.833,34.668,34.668,37.109,46.875,19.043,0
1539620258.837,33.203,33.203,39.062,47.852,24.902,0
1539620258.840,34.668,40.527,36.133,41.992,97.168,0
1539620258.844,41.016,36.621,35.156,46.387,92.285,0
1539620258.848,36.621,33.691,38.086,44.922,36.133,0
1539620258.852,29.785,40.527,40.039,43.945,44.434,0
1539620258.856,26.855,38.574,40.039,45.898,-15.625,0
1539620258.860,25.879,37.598,39.551,40.039,2.930,0
1539620258.864,29.297,37.109,39.551,45.898,53.711,0
1539620258.868,30.273,37.109,39.062,49.316,18.066,0
1539620258.872,29.297,36.621,40.039,46.875,6.348,0
1539620258.876,30.762,35.645,39.062,49.316,37.598,0
1539620258.880,31.738,36.133,37.109,47.363,54.688,0
1539620258.883,31.738,35.156,41.016,49.316,20.996,0
1539620258.887,34.668,37.598,38.086,53.711,12.695,0
1539620258.891,36.621,36.621,35.645,54.199,7.812,0
1539620258.895,34.668,36.133,39.062,53.711,10.742,0
1539620258.899,33.203,38.086,39.062,53.223,60.547,0
1539620258.903,33.691,38.574,38.574,53.711,11.230,0
1539620258.907,37.598,37.598,37.598,54.199,-52.246,0
1539620258.911,38.086,41.016,37.598,50.781,-18.066,0
1539620258.915,37.598,43.945,39.062,47.363,34.668,0
1539620258.919,34.668,39.062,38.086,44.434,41.504,0
1539620258.923,38.574,37.109,39.062,48.828,-2.930,0
1539620258.926,39.551,38.086,40.527,50.781,-19.531,0
1539620258.930,34.180,30.762,38.086,46.875,38.086,0
1539620258.934,35.156,32.227,34.180,45.898,62.988,0
1539620258.938,35.156,39.062,32.227,41.016,64.941,0
1539620258.942,34.180,41.992,36.133,42.969,83.496,0
1539620258.946,32.715,41.504,36.133,41.992,106.445,0
1539620258.950,30.273,41.016,35.645,38.574,63.477,0
1539620258.954,29.297,41.016,35.645,43.945,20.996,0
1539620258.958,28.320,39.062,32.715,41.504,25.879,0
1539620258.962,23.926,39.551,31.250,33.203,43.457,0
1539620258.965,21.973,40.527,33.691,32.227,42.969,0
1539620258.969,30.273,43.457,33.691,34.180,11.719,0
1539620258.973,36.133,42.969,33.691,33.203,26.855,0
1539620258.977,33.691,40.527,38.086,35.156,52.734,0
1539620258.981,33.691,42.969,38.574,39.551,53.711,0
1539620258.985,31.738,41.992,35.645,37.109,43.945,0
1539620258.989,27.832,41.992,35.156,36.621,-1.953,0
1539620258.993,29.297,43.945,37.109,37.598,17.578,0
1539620258.997,28.809,40.527,40.039,37.109,74.219,0
1539620259.001,27.344,37.109,39.551,34.180,65.918,0
1539620259.005,28.320,41.504,36.133,31.738,64.941,0
1539620259.008,29.785,42.969,37.598,36.621,67.383,0
1539620259.012,31.738,37.109,39.062,30.273,6.836,0
1539620259.016,32.227,41.992,37.109,29.785,46.387,0
1539620259.020,33.691,47.363,38.574,35.156,98.145,0
1539620259.024,33.203,47.363,40.527,33.203,57.617,0
1539620259.028,29.297,49.316,38.086,28.809,-8.301,0
1539620259.032,25.391,44.922,37.109,25.391,20.020,0
1539620259.036,23.926,40.039,40.039,25.391,44.922,0
1539620259.040,24.902,38.086,39.551,27.832,-1.465,0
1539620259.044,26.367,37.598,40.039,26.367,-12.207,0
1539620259.048,29.785,40.527,39.551,28.809,-22.461,0
1539620259.051,31.250,40.039,39.062,30.273,30.273,0
1539620259.055,31.250,37.109,41.016,31.738,53.223,0
1539620259.059,29.297,39.062,40.039,33.203,-13.184,0
1539620259.063,31.250,40.039,39.551,32.715,41.992,0
1539620259.067,34.668,39.062,42.480,34.668,58.594,0
1539620259.071,34.668,38.574,43.457,36.621,18.066,0
1539620259.075,38.086,37.598,41.504,34.668,34.668,0
1539620259.079,43.457,40.527,41.504,34.668,41.016,0
1539620259.083,41.016,37.109,40.527,30.273,12.695,0
1539620259.087,36.133,31.738,39.551,28.809,-1.953,0
1539620259.090,32.715,39.062,40.039,27.344,23.926,0
1539620259.094,32.227,41.504,39.551,27.344,0.000,0
1539620259.098,35.645,43.945,38.086,29.297,31.250,0
1539620259.102,33.691,42.969,35.156,28.320,46.875,0
1539620259.106,24.902,41.504,36.621,28.320,67.383,0
1539620259.110,20.508,40.527,39.062,26.855,83.984,0
1539620259.114,21.484,39.551,37.109,26.855,80.078,0
1539620259.118,23.438,41.016,37.598,31.738,99.609,0
1539620259.122,27.832,40.527,39.551,31.250,44.922,0
1539620259.126,27.832,39.551,39.062,30.762,41.504,0
1539620259.130,25.391,41.016,35.645,31.738,111.328,0
1539620259.133,23.438,43.457,33.691,35.645,75.195,0
1539620259.137,24.902,41.016,33.203,33.691,69.336,0
1539620259.141,29.297,41.504,32.715,30.273,42.969,0
1539620259.145,24.414,41.504,31.250,29.785,12.207,0
1539620259.149,22.949,41.016,31.738,30.273,54.688,0
1539620259.153,30.273,41.016,36.133,34.180,73.730,0
1539620259.157,35.156,40.039,36.133,34.668,38.086,0
1539620259.161,38.574,40.527,34.180,36.133,4.883,0
1539620259.165,34.180,37.109,33.691,35.645,20.996,0
1539620259.169,25.879,31.738,34.668,27.344,4.883,0
1539620259.173,26.855,40.527,33.691,26.855,-31.250,0
1539620259.176,24.902,44.922,33.691,32.227,27.832,0
1539620259.180,23.926,42.969,37.109,27.832,40.039,0
1539620259.184,24.902,42.969,37.109,26.367,20.508,0
1539620259.188,26.855,42.480,34.668,28.809,40.039,0
1539620259.192,28.809,39.551,33.203,28.320,24.414,0
1539620259.196,23.926,36.133,33.691,29.297,5.859,0
1539620259.200,23.926,39.551,34.180,27.832,40.039,0
1539620259.204,25.879,40.039,34.180,25.391,67.383,0
1539620259.208,20.996,37.598,32.715,17.090,39.062,0
1539620259.212,23.438,37.109,34.180,20.508,33.203,0
1539620259.215,26.855,36.133,36.133,27.344,103.027,0
1539620259.219,25.879,36.621,34.668,21.973,108.398,0
1539620259.223,31.250,38.086,34.180,26.367,23.438,0
1539620259.227,29.785,38.574,34.668,26.855,58.594,0
1539620259.231,30.273,31.738,34.180,23.926,32.227,0
1539620259.235,30.762,33.203,33.691,25.391,3.418,0
1539620259.239,21.484,35.156,35.156,23.926,39.062,0
1539620259.243,20.508,25.391,38.086,29.297,28.320,0
1539620259.247,23.438,25.879,39.551,27.344,45.898,0
1539620259.251,23.926,32.227,39.551,23.926,56.641,0
1539620259.255,24.902,33.203,41.016,29.297,36.133,0
1539620259.258,23.926,32.227,40.039,30.273,51.270,0
1539620259.262,22.949,31.250,38.086,27.832,92.285,0
1539620259.266,21.484,31.250,38.574,28.809,86.426,0
1539620259.270,21.973,30.273,38.574,28.320,41.992,0
1539620259.274,19.043,32.715,37.598,26.367,9.766,0
1539620259.278,18.066,35.156,39.551,28.809,17.090,0
1539620259.282,17.090,29.785,40.039,31.250,21.484,0
1539620259.286,20.020,30.762,35.156,29.785,56.641,0
1539620259.290,25.879,35.645,35.156,33.203,25.879,0
1539620259.294,24.902,32.715,37.598,34.668,20.996,0
1539620259.298,25.879,30.273,39.062,37.109,83.008,0
1539620259.301,29.297,34.668,38.086,33.203,107.422,0
1539620259.305,32.227,34.180,36.133,26.855,106.934,0
1539620259.309,26.367,27.832,34.668,31.250,45.898,0
1539620259.313,23.926,30.762,32.227,27.344,-20.508,0
1539620259.317,25.879,35.156,35.645,21.973,2.441,0
1539620259.321,27.832,37.598,36.621,25.879,62.500,0
1539620259.325,24.414,39.551,31.738,26.367,60.059,0
1539620259.329,20.508,39.062,34.180,31.250,27.344,0
1539620259.333,18.066,38.574,34.668,34.180,33.203,0
1539620259.337,16.113,40.527,33.203,30.273,25.391,0
1539620259.340,16.113,40.527,33.691,31.738,15.625,0
1539620259.344,18.555,37.598,32.227,28.809,31.250,0
1539620259.348,26.855,38.086,35.645,25.391,15.137,0
1539620259.352,24.902,40.527,36.621,25.879,7.812,0
1539620259.356,22.949,39.551,32.227,26.855,-28.320,0
1539620259.360,22.949,39.062,30.762,27.344,-20.996,0
1539620259.364,24.414,37.598,33.691,29.785,5.859,0
1539620259.368,25.391,40.039,32.227,30.273,11.719,0
1539620259.372,23.438,36.621,29.297,29.297,27.344,0
1539620259.376,27.832,30.273,30.762,32.715,46.875,0
1539620259.380,30.273,37.598,34.180,31.250,94.727,0
1539620259.383,26.855,42.969,33.203,26.855,13.672,0
1539620259.387,21.484,41.504,32.715,26.855,-56.641,0
1539620259.391,23.926,41.992,34.668,28.809,-36.621,0
1539620259.395,25.391,41.504,32.715,28.809,-2.441,0
1539620259.399,25.879,39.551,31.738,27.832,28.320,0
1539620259.403,27.344,38.574,34.180,36.133,53.711,0
1539620259.407,25.391,38.574,34.180,36.621,67.383,0
1539620259.411,23.438,40.527,37.109,28.809,80.078,0
1539620259.415,27.832,36.621,38.086,35.645,69.336,0
1539620259.419,33.203,36.133,36.621,40.527,48.340,0
1539620259.423,32.715,39.062,39.062,43.945,54.688,0
1539620259.426,28.320,38.574,38.574,41.016,59.082,1
1539620259.430,27.344,39.062,38.086,38.086,-6.836,0
1539620259.434,32.227,39.062,39.062,41.992,-37.109,0
1539620259.438,36.621,40.527,36.621,38.574,-19.043,0
1539620259.442,32.227,36.621,37.598,31.738,16.113,0
1539620259.446,24.414,34.668,36.133,33.691,57.129,0
1539620259.450,25.879,38.574,35.645,37.109,-8.789,0
1539620259.454,24.902,41.504,34.180,31.738,-1.465,0
1539620259.458,23.926,44.434,35.156,31.738,22.461,0
1539620259.462,26.367,43.457,37.109,37.109,17.090,0
1539620259.465,28.320,45.410,36.133,35.645,12.695,0
1539620259.469,28.809,44.434,36.133,37.109,8.301,0
1539620259.473,30.273,40.039,35.156,39.062,20.508,0
1539620259.477,32.715,43.457,36.133,35.645,43.457,0
1539620259.481,31.250,43.457,37.109,35.156,52.246,0
1539620259.485,30.273,39.551,39.551,35.645,75.195,0
1539620259.489,29.297,39.062,39.062,40.527,95.215,0
1539620259.493,26.855,37.598,34.668,41.992,41.992,0
1539620259.497,29.785,36.621,36.621,40.039,44.434,0
1539620259.501,30.762,35.156,37.109,40.039,55.176,0
1539620259.505,29.297,38.574,33.203,45.898,6.348,0
1539620259.508,32.227,33.691,35.156,48.828,5.859,0
1539620259.512,30.762,31.250,34.668,40.039,15.625,0
1539620259.516,27.344,40.039,31.738,36.621,14.160,0
1539620259.520,27.344,41.016,33.203,35.645,23.438,0
1539620259.524,26.367,39.062,33.691,30.273,45.898,0
1539620259.528,22.461,35.645,33.691,28.809,79.590,0
1539620259.532,22.949,34.180,32.715,32.227,31.738,0
1539620259.536,26.855,34.180,31.738,32.715,-15.625,0
1539620259.540,29.297,36.133,33.691,38.086,6.836,0
1539620259.544,28.809,34.668,37.109,38.574,-11.719,0
1539620259.548,25.391,35.156,35.156,31.250,0.000,0
1539620259.551,24.902,37.598,33.203,34.668,80.078,0
1539620259.555,27.344,39.062,35.645,32.715,65.918,0
1539620259.559,26.855,35.645,32.227,26.367,52.246,0
1539620259.563,28.320,34.668,30.762,32.715,89.844,0
1539620259.567,28.320,38.574,33.691,34.668,85.938,0
1539620259.571,28.320,35.645,35.156,31.738,83.496,0
1539620259.575,29.297,36.621,36.621,28.809,64.941,0
1539620259.579,26.367,40.527,38.086,28.320,25.879,0
1539620259.583,25.879,39.062,39.551,33.691,62.012,0
1539620259.587,27.344,38.086,41.016,27.832,10.254,0
1539620259.590,23.438,40.527,40.039,21.484,14.648,0
1539620259.594,21.973,37.598,34.180,22.949,43.945,0
1539620259.598,23.438,36.621,36.621,28.320,9.277,0
1539620259.602,21.973,38.574,40.527,32.715,66.895,0
1539620259.606,26.367,38.086,38.574,28.320,97.168,0
1539620259.610,27.832,39.062,39.062,25.391,69.336,0
1539620259.614,25.391,39.551,39.062,26.855,75.195,0
1539620259.618,26.367,39.551,37.598,27.344,100.586,0
1539620259.622,23.438,37.598,36.621,29.297,27.832,0
1539620259.626,21.973,36.133,35.645,26.367,-28.320,0
1539620259.630,26.367,37.109,35.645,25.391,47.852,0
1539620259.633,28.320,30.273,38.086,26.855,47.852,0
1539620259.637,25.391,30.762,37.109,27.344,43.945,0
1539620259.641,23.926,37.109,32.715,27.832,67.871,0
1539620259.645,22.461,37.598,32.715,28.809,-0.977,0
1539620259.649,23.926,37.598,38.086,27.832,10.742,0
1539620259.653,23.926,32.227,41.016,26.367,26.855,0
1539620259.657,20.020,31.738,41.504,25.391,-13.672,0
1539620259.661,20.996,33.691,37.598,30.273,8.789,0
1539620259.665,21.973,30.762,36.133,29.785,12.207,0
1539620259.669,20.508,29.785,39.062,27.344,31.738,0
1539620259.673,23.438,28.320,36.621,31.250,41.016,0
1539620259.676,22.949,27.832,35.156,29.785,8.789,0
1539620259.680,24.414,28.809,36.133,25.879,4.395,0
1539620259.684,27.832,31.738,33.203,32.227,38.086,0
1539620259.688,30.762,34.668,31.250,35.645,59.082,0
1539620259.692,29.297,29.785,34.180,30.273,-8.789,0
1539620259.696,25.879,28.320,35.156,37.109,-45.410,0
1539620259.700,25.879,33.203,34.668,33.691,20.508,0
1539620259.704,23.926,32.227,34.668,27.344,21.973,0
1539620259.708,27.832,36.133,35.645,31.250,3.418,0
1539620259.712,28.320,37.598,35.645,30.273,65.918,0
1539620259.715,21.973,38.574,37.598,34.180,43.945,0
1539620259.719,21.484,32.715,40.039,35.156,-7.812,0
1539620259.723,23.438,27.832,40.039,33.691,-8.301,0
1539620259.727,18.066,34.668,34.668,34.180,-8.789,0
1539620259.731,20.020,38.086,32.227,33.691,20.508,0
1539620259.735,27.344,38.086,33.691,37.109,61.035,0
1539620259.739,22.949,38.086,36.621,34.180,17.090,0
1539620259.743,23.438,39.062,38.086,33.691,3.906,0
1539620259.747,27.344,37.598,36.133,38.574,-1.465,0
1539620259.751,28.809,40.039,37.598,40.039,3.418,0
1539620259.755,27.832,41.016,38.574,40.039,41.504,0
1539620259.758,27.344,40.527,36.621,41.504,50.293,0
1539620259.762,29.785,40.527,34.668,41.504,87.402,0
1539620259.766,29.785,40.039,34.180,42.480,84.961,0
1539620259.770,27.832,38.574,33.203,39.551,75.195,0
1539620259.774,24.902,38.574,32.715,32.715,35.156,0
1539620259.778,25.391,41.016,35.156,32.227,11.719,0
1539620259.782,27.344,38.086,37.598,37.109,14.648,0
1539620259.786,26.855,30.273,37.109,36.621,71.289,0
1539620259.790,25.391,36.133,34.668,31.250,78.125,0
1539620259.794,30.762,44.434,35.156,38.086,-17.578,0
1539620259.798,35.156,43.945,41.504,39.551,-1.465,0
1539620259.801,32.227,40.527,38.574,37.598,37.109,0
1539620259.805,29.785,40.039,34.180,39.551,32.227,0
1539620259.809,28.320,41.992,35.645,36.621,43.945,0
1539620259.813,28.320,36.133,36.133,38.574,61.523,0
1539620259.817,27.344,34.180,36.133,45.410,45.410,0
1539620259.821,24.902,39.062,31.738,41.016,38.086,0
1539620259.825,28.809,38.574,30.273,41.992,73.730,0
1539620259.829,34.180,36.621,37.598,43.945,57.617,0
1539620259.833,29.297,37.109,38.086,39.551,36.621,0
1539620259.837,24.902,37.109,34.668,36.621,17.090,0
1539620259.840,26.367,34.668,35.156,36.133,8.301,0
1539620259.844,29.785,32.715,34.668,37.109,59.082,0
1539620259.848,29.297,33.691,35.156,36.621,-7.324,0
1539620259.852,29.297,36.133,35.645,36.133,14.648,0
1539620259.856,32.227,37.109,32.227,39.551,95.215,0
1539620259.860,32.227,36.133,33.203,37.598,40.527,0
1539620259.864,32.715,37.598,36.621,34.668,34.180,0
1539620259.868,34.668,33.203,34.180,34.180,72.754,0
1539620259.872,34.668,28.320,31.738,26.855,20.996,0
1539620259.876,29.297,35.156,32.227,20.508,-3.906,0
1539620259.880,27.832,42.969,32.227,20.508,39.062,0
1539620259.883,30.762,40.039,32.227,20.020,83.984,0
1539620259.887,23.438,35.156,31.738,16.113,72.754,0
1539620259.891,19.531,33.691,31.250,13.184,27.832,0
1539620259.895,23.438,32.715,28.809,15.137,26.367,0
1539620259.899,20.996,32.715,30.273,12.695,9.277,0
1539620259.903,23.438,33.203,33.203,15.625,-11.719,0
1539620259.907,26.855,32.227,33.203,16.602,-40.039,0
1539620259.911,24.902,33.203,32.715,17.090,14.160,0
1539620259.915,22.949,32.227,35.645,20.020,70.312,0
1539620259.919,22.949,29.785,36.133,16.113,14.160,0
1539620259.923,27.344,34.180,34.668,16.113,-13.672,0
1539620259.926,27.344,33.203,32.715,15.625,12.207,0
1539620259.930,22.949,33.203,33.691,11.719,34.668,0
1539620259.934,21.973,32.715,30.762,15.137,4.395,0
1539620259.938,21.973,31.250,28.809,12.695,16.602,0
1539620259.942,19.531,33.203,31.738,7.324,108.398,0
1539620259.946,18.066,34.180,30.273,7.812,90.332,0
1539620259.950,19.043,34.668,27.832,7.812,82.520,0
1539620259.954,19.531,36.133,28.320,11.719,100.098,0
1539620259.958,20.020,29.297,30.273,14.160,90.820,0
1539620259.962,19.043,26.367,31.250,8.789,51.758,0
1539620259.965,21.484,35.156,28.809,7.812,20.508,0
1539620259.969,26.367,40.527,28.320,10.742,49.316,0
1539620259.973,20.508,38.086,28.320,12.207,51.270,0
1539620259.977,14.648,36.621,31.738,15.625,45.410,0
1539620259.981,20.020,37.598,33.203,15.625,46.875,0
1539620259.985,21.484,37.109,30.762,13.184,3.906,0
1539620259.989,19.043,34.180,31.250,14.648,21.484,0
1539620259.993,16.113,31.250,33.203,18.555,77.148,0
1539620259.997,17.090,32.227,32.715,16.602,68.848,0
1539620260.001,20.020,32.715,34.180,14.160,56.641,0
1539620260.005,17.090,28.809,38.086,15.137,54.688,0
1539620260.008,13.184,28.809,38.086,13.672,41.504,0
1539620260.012,18.066,31.250,34.180,15.625,51.758,0
1539620260.016,20.996,30.762,37.109,17.578,60.547,0
1539620260.020,18.066,30.273,42.969,14.648,47.363,0
1539620260.024,17.090,33.203,41.504,13.672,-10.254,0
1539620260.028,19.043,36.621,38.574,14.160,-29.785,0
1539620260.032,20.996,28.809,38.574,19.531,3.906,0
1539620260.036,23.438,24.414,36.621,20.508,22.949,0
1539620260.040,22.949,32.715,34.180,19.531,32.715,0
1539620260.044,20.020,37.598,39.551,22.949,66.406,0
1539620260.048,23.926,39.062,42.480,25.879,73.730,0
1539620260.051,29.785,36.621,43.457,27.832,49.805,0
1539620260.055,32.227,36.621,43.457,25.879,62.012,0
1539620260.059,29.297,38.086,39.551,24.902,71.777,0
1539620260.063,23.926,39.551,42.480,28.320,84.961,0
1539620260.067,22.949,41.016,43.457,27.832,81.543,0
1539620260.071,22.949,36.621,41.992,27.832,50.781,0
1539620260.075,23.926,35.156,43.945,29.297,37.109,0
1539620260.079,21.484,37.109,41.504,27.344,69.824,0
1539620260.083,22.949,36.621,41.504,32.227,35.645,0
1539620260.087,25.879,36.133,42.969,32.227,24.414,0
1539620260.090,27.832,36.621,42.480,27.344,103.516,0
1539620260.094,28.809,36.133,40.527,28.320,71.289,0
1539620260.098,28.320,35.645,39.062,26.367,-4.395,0
1539620260.102,24.414,38.574,36.133,20.020,56.641,0
1539620260.106,23.438,35.645,37.109,20.508,69.336,0
1539620260.110,27.832,27.832,40.039,18.066,-8.301,0
1539620260.114,31.250,34.668,39.551,17.578,-10.254,0
1539620260.118,27.832,37.598,37.109,24.902,32.227,0
1539620260.122,24.902,34.180,38.086,29.785,32.227,0
1539620260.126,27.832,37.109,40.527,30.762,-12.695,0
1539620260.130,25.879,37.598,37.598,32.227,8.789,0
1539620260.133,27.832,36.133,37.598,29.297,27.344,0
1539620260.137,33.691,35.645,39.551,27.832,17.578,0
1539620260.141,31.738,31.738,37.109,34.180,56.152,0
1539620260.145,25.391,29.785,35.156,35.645,80.566,0
1539620260.149,21.484,33.203,36.621,29.297,12.207,0
1539620260.153,22.461,35.156,39.551,26.367,37.598,0
1539620260.157,24.902,36.133,40.039,25.391,11.230,0
1539620260.161,25.879,38.086,38.574,19.531,-50.293,0
1539620260.165,24.902,37.598,36.621,25.391,17.578,0
1539620260.169,24.902,36.621,36.133,29.297,12.207,0
1539620260.173,23.926,36.133,36.133,25.391,0.488,0
1539620260.176,24.902,36.621,36.133,25.391,45.898,0
1539620260.180,21.973,36.621,37.109,20.508,38.086,0
1539620260.184,17.090,35.156,36.133,19.531,34.668,0
1539620260.188,24.414,28.320,36.133,25.391,-13.672,0
1539620260.192,24.902,25.391,38.574,30.273,53.711,0
1539620260.196,22.461,36.621,38.574,31.738,125.977,0
1539620260.200,28.809,41.016,38.574,37.109,44.434,0
1539620260.204,34.180,39.062,43.457,40.527,34.668,0
1539620260.208,30.273,40.039,43.457,38.086,45.410,0
1539620260.212,28.809,40.039,41.016,36.133,28.320,0
1539620260.215,31.738,36.133,41.992,38.086,16.602,0
1539620260.219,29.297,36.621,38.574,36.133,47.852,0
1539620260.223,29.785,37.598,34.180,28.809,0.488,0
1539620260.227,30.273,35.645,38.574,26.367,-0.488,0
1539620260.231,25.391,34.180,41.992,26.367,41.016,0
1539620260.235,23.926,34.180,40.039,25.391,39.062,0
1539620260.239,25.879,31.738,42.480,28.320,10.254,0
1539620260.243,26.367,31.250,42.969,29.785,46.875,0
1539620260.247,27.832,30.762,39.062,25.879,61.523,0
1539620260.251,28.809,30.273,39.062,25.391,83.984,0
1539620260.255,28.809,32.227,39.551,24.414,14.160,0
1539620260.258,27.344,31.250,38.574,26.855,14.648,0
1539620260.262,25.879,31.250,34.668,26.855,85.938,0
1539620260.266,23.438,27.832,34.180,23.926,2.930,0
1539620260.270,23.438,30.273,36.621,19.531,45.898,0
1539620260.274,27.344,38.574,35.645,20.996,64.453,0
1539620260.278,26.855,41.016,35.156,23.926,59.082,0
1539620260.282,27.344,42.969,34.180,21.484,79.590,0
1539620260.286,31.250,43.945,36.133,22.949,15.625,0
1539620260.290,31.738,45.410,36.621,23.926,20.508,0
1539620260.294,30.273,41.992,36.621,18.066,11.719,0
1539620260.298,30.762,38.086,39.551,21.484,9.766,0
1539620260.301,31.738,37.598,38.086,27.344,42.480,0
1539620260.305,31.250,37.598,33.691,21.484,32.227,0
1539620260.309,30.273,36.621,35.156,20.020,21.973,0
1539620260.313,32.715,38.574,40.039,22.949,57.129,0
1539620260.317,35.645,37.598,40.039,20.508,77.637,0
1539620260.321,33.691,34.180,40.039,18.555,63.965,0
1539620260.325,35.645,37.109,38.574,20.996,45.410,0
1539620260.329,30.762,32.227,38.086,20.508,49.805,0
1539620260.333,27.832,26.367,37.109,21.973,44.922,0
1539620260.337,28.809,38.086,35.156,20.020,7.812,0
1539620260.340,26.855,43.457,34.180,16.113,29.297,0
1539620260.344,31.250,41.016,33.203,20.020,46.387,0
1539620260.348,29.785,40.527,34.180,20.508,66.895,0
1539620260.352,28.809,41.016,36.621,20.508,55.176,0
1539620260.356,30.762,37.109,37.598,23.438,40.527,0
1539620260.360,32.227,36.133,37.598,25.879,65.430,0
1539620260.364,33.691,38.574,39.062,25.391,34.668,0
1539620260.368,31.738,37.598,40.527,20.020,-7.812,0
1539620260.372,30.762,36.133,40.527,22.949,0.977,0
1539620260.376,33.691,37.598,41.016,28.320,3.906,0
1539620260.380,32.715,39.551,40.527,26.367,10.742,0
1539620260.383,29.297,39.551,41.016,20.996,19.531,0
1539620260.387,28.809,40.527,41.504,22.461,18.066,0
1539620260.391,26.367,39.062,38.086,25.879,52.246,0
1539620260.395,26.855,37.109,36.133,19.531,20.508,0
1539620260.399,28.809,31.250,37.109,19.531,-21.484,0
1539620260.403,24.414,33.203,35.156,20.020,40.039,0
1539620260.407,24.414,39.062,33.691,20.508,68.359,0
1539620260.411,26.367,38.574,33.691,21.973,58.594,0
1539620260.415,23.926,36.621,35.156,15.625,-26.367,0
1539620260.419,26.367,35.645,35.645,19.531,-13.184,0
1539620260.423,32.715,37.598,33.691,31.250,42.480,0
1539620260.426,26.367,36.621,35.645,29.785,34.668,0
1539620260.430,24.902,38.086,35.645,25.391,76.660,0
1539620260.434,28.809,40.527,29.785,24.902,56.641,0
1539620260.438,28.320,37.598,29.785,25.391,25.879,0
1539620260.442,29.297,36.621,33.691,24.902,21.484,0
1539620260.446,31.250,41.016,36.133,25.391,-5.859,0
1539620260.450,30.273,42.480,35.156,25.879,33.691,0
1539620260.454,29.297,39.062,32.715,19.531,67.383,0
1539620260.458,30.273,40.527,32.227,21.484,44.922,0
1539620260.462,32.227,40.527,32.715,27.344,41.992,0
1539620260.465,34.180,36.133,33.691,22.949,21.484,0
1539620260.469,33.203,39.062,37.109,25.879,-23.926,0
1539620260.473,31.738,43.457,38.574,29.785,24.414,0
1539620260.477,28.809,44.434,33.691,23.438,57.129,0
1539620260.481,26.367,43.457,32.715,20.508,68.359,0
1539620260.485,28.809,40.527,37.598,23.438,76.172,0
1539620260.489,29.785,40.039,40.527,22.461,86.914,0
1539620260.493,28.320,41.504,38.574,18.555,57.617,0
1539620260.497,28.320,41.992,33.203,17.090,-12.695,0
1539620260.501,29.297,42.480,32.227,18.066,20.996,0
1539620260.505,28.320,41.504,34.180,18.066,58.594,0
1539620260.508,34.180,40.039,36.133,25.879,70.801,0
1539620260.512,36.621,41.504,39.551,24.414,53.223,0
1539620260.516,28.320,40.527,37.598,18.555,74.707,0
1539620260.520,26.367,41.016,34.668,18.066,66.406,0
1539620260.524,28.320,41.504,35.156,12.695,27.832,0
1539620260.528,33.203,36.133,36.133,14.160,56.152,0
1539620260.532,35.645,38.086,35.156,13.672,55.176,0
1539620260.536,29.785,44.434,33.203,7.324,64.453,0
1539620260.540,29.785,44.922,35.156,5.859,73.242,0
1539620260.544,35.156,44.922,34.668,5.371,39.062,0
1539620260.548,32.227,44.434,33.203,1.953,9.277,0
1539620260.551,34.180,43.945,37.109,3.418,-24.902,0
1539620260.555,35.156,42.969,36.133,5.859,-3.906,0
1539620260.559,29.785,37.598,33.203,4.395,73.242,0
1539620260.563,26.367,34.668,34.180,10.254,60.059,0
1539620260.567,27.832,36.133,35.156,9.766,-15.137,0
1539620260.571,29.297,35.156,35.156,10.254,11.230,0
1539620260.575,28.320,36.621,32.227,12.695,49.316,0
1539620260.579,29.785,33.691,33.691,8.789,35.156,0
1539620260.583,25.391,30.273,34.668,10.742,-6.348,0
1539620260.587,25.391,41.016,34.668,19.043,20.508,0
1539620260.590,24.414,43.945,35.156,17.578,20.996,0
1539620260.594,21.484,41.016,35.156,14.160,31.738,0
1539620260.598,22.461,42.969,37.109,20.508,76.660,0
1539620260.602,23.438,43.457,36.133,24.902,51.758,0
1539620260.606,22.461,41.992,34.180,29.297,80.078,0
1539620260.610,22.461,41.992,33.691,35.156,34.180,0
1539620260.614,21.973,42.969,35.156,34.668,0.000,0
1539620260.618,24.902,42.969,37.598,34.180,81.543,0
1539620260.622,26.367,40.527,39.062,33.691,23.438,0
1539620260.626,25.391,39.062,38.086,34.668,3.418,0
1539620260.630,31.250,39.062,36.133,40.527,57.129,0
1539620260.633,33.203,36.133,35.645,42.969,20.020,0
1539620260.637,31.250,33.691,34.180,40.527,42.480,0
1539620260.641,26.367,34.180,33.691,36.621,52.246,0
1539620260.645,22.949,32.715,32.715,37.598,48.340,0
1539620260.649,27.344,33.691,29.785,37.109,71.777,0
1539620260.653,30.273,35.156,32.715,41.992,71.289,0
1539620260.657,28.320,39.062,33.203,39.551,9.277,0
1539620260.661,29.297,39.062,32.715,34.180,-20.508,0
1539620260.665,27.832,36.621,33.691,33.691,35.645,0
1539620260.669,25.391,38.574,34.668,28.320,58.105,0
1539620260.673,25.879,41.504,35.156,29.297,47.363,0
1539620260.676,22.461,39.551,31.250,27.344,-5.859,0
1539620260.680,18.066,38.086,30.762,26.367,4.883,0
1539620260.684,18.066,38.574,34.180,31.250,57.129,0
1539620260.688,22.461,40.039,31.738,33.203,-9.766,0
1539620260.692,27.832,37.109,31.250,34.180,24.902,0
1539620260.696,23.926,37.109,32.715,35.645,116.699,0
1539620260.700,20.996,37.109,34.668,32.715,49.805,0
1539620260.704,21.973,32.715,35.645,28.320,5.859,0
1539620260.708,22.461,32.715,34.180,28.320,43.945,0
1539620260.712,26.367,28.320,33.691,26.855,84.473,0
1539620260.715,25.391,29.297,32.715,30.273,102.539,0
1539620260.719,26.367,40.527,32.715,33.203,55.664,0
1539620260.723,28.809,38.086,34.668,34.668,-17.578,0
1539620260.727,27.344,34.180,35.156,29.297,-1.465,0
1539620260.731,26.855,36.621,37.598,26.367,52.734,0
1539620260.735,33.691,37.598,38.574,36.621,70.312,0
1539620260.739,31.250,36.133,36.133,32.715,85.938,0
1539620260.743,24.902,35.156,35.156,25.879,85.938,0
1539620260.747,31.250,36.133,32.715,26.367,46.875,0
1539620260.751,36.133,35.645,33.203,26.367,46.387,0
1539620260.755,33.203,32.715,35.156,23.438,85.938,0
1539620260.758,31.250,29.785,35.156,19.531,52.246,0
1539620260.762,33.691,32.715,35.645,23.438,25.391,0
1539620260.766,34.668,34.180,35.645,25.879,33.691,0
1539620260.770,35.156,32.227,39.062,21.973,34.180,0
1539620260.774,34.668,27.832,41.992,19.043,44.434,0
1539620260.778,33.203,23.438,40.527,21.973,78.125,0
1539620260.782,34.180,27.344,37.598,20.508,46.875,0
1539620260.786,35.156,32.715,37.598,16.113,-28.809,0
1539620260.790,32.715,31.250,35.645,19.043,-32.227,0
1539620260.794,28.809,27.832,34.180,19.043,62.500,0
1539620260.798,30.762,26.855,39.062,16.602,66.895,0
1539620260.801,33.691,26.855,41.016,17.578,39.062,1
1539620260.805,33.691,31.250,38.086,15.625,65.918,0
1539620260.809,31.738,33.691,34.668,11.719,72.754,0
1539620260.813,27.344,29.785,35.645,12.207,52.246,0
1539620260.817,30.762,27.344,39.062,14.648,28.320,0
1539620260.821,34.668,32.227,38.574,16.602,16.602,0
1539620260.825,32.715,31.738,35.645,16.602,70.801,0
1539620260.829,27.832,29.785,35.156,20.508,78.613,0
1539620260.833,23.438,33.203,33.691,18.555,85.938,0
1539620260.837,25.391,28.809,33.691,17.578,60.547,0
1539620260.840,24.902,22.461,35.156,18.066,33.691,0
1539620260.844,24.414,28.809,34.668,18.555,44.922,0
1539620260.848,24.414,32.227,34.180,13.184,53.223,0
1539620260.852,23.438,32.227,35.645,5.371,38.086,0
1539620260.856,20.508,30.273,36.621,6.348,30.762,0
1539620260.860,20.508,30.273,39.062,10.742,11.719,0
1539620260.864,25.879,30.273,37.109,17.578,5.859,0
1539620260.868,28.809,32.715,37.109,22.461,32.227,0
1539620260.872,28.320,36.133,40.527,19.043,11.719,0
1539620260.876,24.902,32.227,37.598,17.578,35.156,0
1539620260.880,22.949,31.738,36.621,20.508,68.848,0
1539620260.883,26.367,33.203,37.109,23.438,9.766,0
1539620260.887,24.902,30.762,34.180,19.531,-4.883,0
1539620260.891,24.902,29.785,34.180,18.066,15.137,0
1539620260.895,27.832,32.715,35.156,26.367,31.738,0
1539620260.899,27.344,29.297,32.227,21.484,14.160,0
1539620260.903,30.762,23.438,31.250,17.578,11.719,0
1539620260.907,29.297,30.762,33.691,20.508,40.039,0
1539620260.911,20.020,34.180,33.203,14.160,36.133,0
1539620260.915,18.555,35.645,30.273,16.602,20.508,0
1539620260.919,22.949,36.133,31.738,23.926,36.133,0
1539620260.923,21.484,35.645,33.203,21.973,75.684,0
1539620260.926,20.508,33.691,33.203,15.137,34.180,0
1539620260.930,23.438,33.203,33.203,14.648,4.883,0
1539620260.934,22.461,34.668,32.715,18.555,40.039,0
1539620260.938,22.949,34.668,31.250,18.066,57.129,0
1539620260.942,20.020,31.738,31.250,13.672,47.363,0
1539620260.946,18.555,29.785,31.250,10.254,8.301,0
1539620260.950,23.438,29.785,29.785,14.648,48.828,0
1539620260.954,23.438,29.785,33.203,15.625,25.391,0
1539620260.958,19.531,34.668,32.227,17.578,31.250,0
1539620260.962,17.578,29.785,29.785,25.879,56.152,0
1539620260.965,16.113,22.949,34.180,26.367,62.012,0
1539620260.969,18.555,30.762,34.180,22.949,72.266,0
1539620260.973,17.090,35.156,34.180,23.438,33.203,0
1539620260.977,17.090,35.156,34.668,23.926,26.855,0
1539620260.981,21.973,34.180,33.691,23.926,35.645,0
1539620260.985,26.855,31.738,35.645,28.320,18.555,0
1539620260.989,24.414,30.273,34.180,33.691,44.434,0
1539620260.993,23.438,31.250,33.203,35.156,91.309,0
1539620260.997,32.227,30.273,40.039,37.109,49.316,0
1539620261.001,24.414,30.762,41.504,34.668,-35.156,0
1539620261.005,14.648,32.715,36.133,31.250,8.789,0
1539620261.008,20.508,33.203,32.227,31.738,-18.066,0
1539620261.012,23.926,33.203,33.691,37.598,-44.922,0
1539620261.016,22.949,31.738,36.621,36.621,24.414,0
1539620261.020,19.531,32.227,35.645,34.180,41.016,0
1539620261.024,24.414,25.879,36.621,40.527,77.148,0
1539620261.028,25.391,25.879,36.133,44.434,103.516,0
1539620261.032,21.973,35.645,33.691,45.410,63.965,0
1539620261.036,27.832,38.574,33.691,48.828,20.996,0
1539620261.040,30.762,35.645,36.621,49.316,32.227,0
1539620261.044,28.320,31.738,37.598,47.852,12.695,0
1539620261.048,24.902,32.715,34.180,45.898,-5.371,0
1539620261.051,25.879,34.668,35.156,48.340,0.488,0
1539620261.055,23.926,33.203,36.621,49.316,-11.719,0
1539620261.059,20.508,31.250,32.715,43.457,21.973,0
1539620261.063,20.996,30.762,30.762,37.598,-19.043,0
1539620261.067,19.531,26.855,35.156,40.039,-41.992,0
1539620261.071,18.555,25.879,36.621,43.457,-2.441,0
1539620261.075,21.484,27.832,34.668,41.992,26.855,0
1539620261.079,21.973,27.344,35.645,42.969,38.574,0
1539620261.083,21.484,30.762,35.156,43.945,-13.184,0
1539620261.087,23.438,23.438,37.109,42.480,-1.953,0
1539620261.090,23.438,20.996,40.527,40.039,37.109,0
1539620261.094,22.949,30.762,40.039,45.410,14.160,0
1539620261.098,22.461,31.250,37.598,47.363,29.297,0
1539620261.102,25.391,30.273,35.645,43.945,115.723,0
1539620261.106,27.832,31.250,35.156,37.598,73.730,0
1539620261.110,20.508,28.809,36.621,32.715,-20.508,0
1539620261.114,20.508,28.809,38.574,36.621,26.367,0
1539620261.118,20.996,29.785,37.109,32.715,11.230,0
1539620261.122,20.996,26.855,36.621,26.367,-22.949,0
1539620261.126,21.973,28.320,38.574,30.762,29.785,0
1539620261.130,19.531,25.391,38.574,35.156,26.367,0
1539620261.133,22.461,23.438,40.039,31.738,4.883,0
1539620261.137,22.949,26.367,42.480,28.809,20.996,0
1539620261.141,23.926,25.391,42.969,29.785,8.301,0
1539620261.145,24.414,31.250,38.086,26.855,-13.184,0
1539620261.149,21.484,37.109,33.691,21.973,-15.137,0
1539620261.153,20.020,40.039,34.668,20.020,37.598,0
1539620261.157,20.020,42.480,36.133,21.484,65.918,0
1539620261.161,19.531,41.016,35.645,23.438,42.969,0
1539620261.165,19.043,39.062,34.180,20.020,97.656,0
1539620261.169,19.531,41.504,30.762,18.555,108.887,0
1539620261.173,20.020,44.922,33.691,24.414,53.223,0
1539620261.176,21.484,42.969,35.156,22.461,39.062,0
1539620261.180,21.484,39.551,33.203,16.113,-4.883,0
1539620261.184,23.438,40.527,31.738,18.066,46.875,0
1539620261.188,25.879,38.574,34.180,21.973,70.801,0
1539620261.192,26.367,33.203,34.180,21.973,36.133,0
1539620261.196,27.832,43.457,35.156,26.367,34.180,0
1539620261.200,30.762,50.293,37.109,26.855,49.805,0
1539620261.204,29.785,47.852,36.621,24.414,45.898,0
1539620261.208,28.320,50.293,30.762,24.414,31.738,0
1539620261.212,27.832,46.387,29.297,24.902,69.336,0
1539620261.215,26.367,43.945,35.645,26.855,64.941,0
1539620261.219,29.297,46.387,38.574,25.879,56.152,0
1539620261.223,33.691,47.363,40.527,27.344,27.832,0
1539620261.227,30.273,48.828,38.086,27.344,13.184,0
1539620261.231,25.391,47.852,34.668,23.926,69.336,0
1539620261.235,24.902,45.898,35.645,23.926,42.969,0
1539620261.239,24.902,42.969,34.668,19.043,0.000,0
1539620261.243,26.855,45.410,34.180,24.902,36.133,0
1539620261.247,30.273,43.945,32.715,33.203,34.668,0
1539620261.251,28.320,41.504,35.156,31.250,44.434,0
1539620261.255,24.414,41.016,38.086,27.344,96.191,0
1539620261.258,22.461,41.016,36.621,23.438,35.645,0
1539620261.262,20.020,41.504,35.645,21.484,25.391,0
1539620261.266,20.020,39.062,31.738,24.414,64.453,0
1539620261.270,21.484,39.551,31.738,22.461,42.480,0
1539620261.274,20.996,39.062,35.156,22.461,60.547,0
1539620261.278,23.926,37.598,35.156,24.902,90.820,0
1539620261.282,22.461,36.621,34.180,21.484,42.969,0
1539620261.286,15.137,36.621,30.762,21.973,39.551,0
1539620261.290,15.137,37.109,31.738,23.438,0.977,0
1539620261.294,19.043,37.598,33.203,25.879,61.035,0
1539620261.298,19.531,36.621,28.809,23.438,101.074,0
1539620261.301,19.531,35.156,31.738,22.461,27.832,0
1539620261.305,21.973,37.598,38.086,26.855,9.766,0
1539620261.309,20.020,38.086,36.133,28.320,23.926,0
1539620261.313,19.043,35.156,33.691,28.320,64.453,0
1539620261.317,22.949,36.133,35.156,31.738,23.438,0
1539620261.321,23.926,31.738,35.156,35.156,25.391,0
1539620261.325,25.391,26.855,34.668,30.273,41.504,0
1539620261.329,24.414,33.203,36.133,28.320,2.930,0
1539620261.333,19.531,38.086,35.645,26.855,71.289,0
1539620261.337,20.020,38.574,37.109,28.809,72.266,0
1539620261.340,21.973,39.062,38.574,32.227,40.527,0
1539620261.344,22.949,38.086,37.598,31.250,83.496,0
1539620261.348,23.926,37.109,36.621,31.250,49.805,0
1539620261.352,23.926,37.109,35.645,29.785,17.090,0
1539620261.356,22.461,37.109,37.598,24.414,45.898,0
1539620261.360,21.973,39.062,40.039,31.250,5.371,0
1539620261.364,22.461,36.133,40.039,31.738,-32.227,0
1539620261.368,19.531,30.762,41.504,28.809,0.488,0
1539620261.372,20.996,35.156,44.434,33.203,25.391,0
1539620261.376,20.020,36.133,42.969,31.250,22.461,0
1539620261.380,19.531,39.062,41.992,35.645,32.227,0
1539620261.383,20.996,37.109,40.039,36.133,14.648,0
1539620261.387,19.043,31.738,37.598,30.762,2.930,0
1539620261.391,18.555,37.109,38.086,29.785,47.852,0
1539620261.395,17.090,41.016,37.598,30.762,51.270,0
1539620261.399,19.043,39.551,36.621,30.762,31.738,0
1539620261.403,20.020,38.574,34.180,32.227,59.082,0
1539620261.407,19.043,37.598,35.156,36.133,74.707,0
1539620261.411,14.160,38.086,38.086,36.621,40.527,0
1539620261.415,16.113,38.086,37.109,39.551,25.879,0
1539620261.419,20.996,36.621,37.109,38.574,16.602,0
1539620261.423,18.555,37.109,37.109,35.645,32.227,0
1539620261.426,15.137,39.062,37.598,35.156,44.922,0
1539620261.430,18.555,38.574,38.574,38.086,62.012,0
1539620261.434,22.461,39.062,39.551,46.387,86.914,0
1539620261.438,19.531,39.551,41.016,47.363,34.180,0
1539620261.442,20.020,41.016,38.574,45.410,-37.598,0
1539620261.446,20.508,43.457,38.574,48.828,-0.977,0
1539620261.450,22.949,41.992,41.992,51.270,-4.395,0
1539620261.454,26.367,39.551,41.992,53.711,-20.508,0
1539620261.458,20.020,40.039,40.527,55.176,-9.766,0
1539620261.462,14.160,34.180,40.039,52.734,7.812,0
1539620261.465,19.531,37.109,41.992,53.711,67.383,0
1539620261.469,21.484,47.363,41.016,57.129,96.680,0
1539620261.473,18.555,47.852,39.551,53.223,19.043,0
1539620261.477,14.160,41.992,38.574,45.898,29.785,0
1539620261.481,13.184,42.969,35.645,46.875,27.344,0
1539620261.485,16.113,45.898,34.668,47.363,34.668,0
1539620261.489,16.602,41.992,32.715,46.875,41.992,0
1539620261.493,17.090,41.992,35.156,55.176,32.715,0
1539620261.497,20.996,42.480,38.574,62.988,58.594,0
1539620261.501,21.973,41.992,37.109,67.383,13.184,0
1539620261.505,19.531,41.992,35.156,70.312,20.020,0
1539620261.508,20.508,41.504,33.691,64.941,54.688,0
1539620261.512,18.555,41.504,34.180,63.965,21.973,0
1539620261.516,19.531,40.039,37.109,73.730,27.344,0
1539620261.520,20.996,38.574,39.551,73.730,74.707,0
1539620261.524,20.508,39.062,39.551,72.266,55.176,0
1539620261.528,23.926,41.992,38.574,75.684,3.418,0
1539620261.532,23.438,40.527,37.109,77.148,6.348,0
1539620261.536,25.391,40.039,34.668,75.195,19.531,0
1539620261.540,30.273,41.016,37.598,72.754,41.504,0
1539620261.544,24.902,39.062,41.016,68.359,41.504,0
1539620261.548,20.020,32.715,38.574,67.871,48.340,0
1539620261.551,22.461,32.227,39.062,65.430,56.152,0
1539620261.555,21.484,38.086,40.527,61.523,35.645,0
1539620261.559,19.043,40.039,35.645,63.965,43.945,0
1539620261.563,24.414,42.969,37.598,67.871,46.387,0
1539620261.567,29.785,43.945,37.598,62.988,26.855,0
1539620261.571,28.320,41.504,33.691,58.594,43.945,0
1539620261.575,24.902,39.062,35.645,57.617,14.160,0
1539620261.579,21.484,34.668,35.645,54.199,28.320,0
1539620261.583,19.531,32.227,34.180,54.688,42.969,0
1539620261.587,19.043,31.738,34.668,54.688,25.391,0
1539620261.590,16.113,32.715,32.715,49.805,57.617,0
1539620261.594,14.648,32.715,32.715,46.875,55.664,0
1539620261.598,22.461,32.715,37.598,50.293,13.672,0
1539620261.602,28.320,37.109,38.574,52.246,18.066,0
1539620261.606,33.203,39.551,39.062,54.199,91.797,0
1539620261.610,38.574,38.086,41.504,59.082,145.508,0
1539620261.614,39.062,38.086,39.062,49.316,88.379,0
1539620261.618,38.574,41.016,34.668,38.574,14.160,0
1539620261.622,37.598,35.645,32.227,37.109,-3.906,0
1539620261.626,39.062,32.227,32.227,39.062,-60.547,0
1539620261.630,38.086,40.527,35.645,43.457,-28.809,0
1539620261.633,31.738,42.480,37.598,43.945,-8.789,0
1539620261.637,33.691,43.945,36.133,43.945,-6.348,0
1539620261.641,38.574,41.992,36.621,39.062,48.340,0
1539620261.645,31.738,37.598,36.133,39.062,26.367,0
1539620261.649,25.879,39.551,34.668,47.363,38.086,0
1539620261.653,24.414,39.551,36.621,45.410,56.152,0
1539620261.657,22.461,36.621,36.621,42.969,25.879,0
1539620261.661,22.461,33.203,35.645,44.434,32.227,0
1539620261.665,19.531,33.203,33.203,43.457,61.523,0
1539620261.669,18.066,35.156,32.227,45.898,68.848,0
1539620261.673,19.531,35.156,34.180,51.758,74.707,0
1539620261.676,19.531,36.133,33.203,51.270,13.672,0
1539620261.680,19.043,35.156,35.156,49.805,56.152,0
1539620261.684,22.461,34.668,39.062,55.176,64.941,0
1539620261.688,26.855,35.645,36.621,56.152,20.508,0
1539620261.692,24.902,35.645,34.180,54.199,33.203,0
1539620261.696,23.438,36.621,34.668,60.059,58.594,0
1539620261.700,28.320,39.062,33.691,59.082,51.270,0
1539620261.704,31.250,32.227,30.273,56.641,35.156,0
1539620261.708,35.156,28.809,32.715,54.688,61.523,0
1539620261.712,35.645,38.086,36.621,61.523,59.082,0
1539620261.715,32.227,41.016,34.668,64.453,-11.719,0
1539620261.719,33.691,42.480,34.180,57.129,13.672,0
1539620261.723,36.621,42.480,35.645,57.617,24.414,0
1539620261.727,36.133,40.527,34.668,59.082,0.000,0
1539620261.731,38.086,43.457,35.645,62.012,44.434,0
1539620261.735,33.203,41.016,35.645,64.453,51.758,0
1539620261.739,28.809,40.039,36.133,63.477,39.551,0
1539620261.743,31.250,39.551,32.715,62.500,78.613,0
1539620261.747,31.738,37.109,31.738,62.012,41.016,0
1539620261.751,32.227,40.527,39.062,64.941,1.465,0
1539620261.755,30.273,41.992,38.574,65.918,50.293,0
1539620261.758,32.227,41.504,36.133,65.918,68.359,0
1539620261.762,33.203,39.551,37.109,67.383,36.133,0
1539620261.766,31.738,38.086,36.133,65.918,82.520,0
1539620261.770,30.762,40.527,36.621,67.871,106.934,0
1539620261.774,31.738,39.551,36.133,67.383,54.688,0
1539620261.778,30.762,32.715,35.156,62.988,64.941,0
1539620261.782,26.855,34.180,37.109,64.453,25.879,0
1539620261.786,31.738,41.504,35.156,65.430,18.066,0
1539620261.790,35.645,46.387,35.645,66.406,66.406,0
1539620261.794,33.691,42.969,37.109,57.617,54.688,0
1539620261.798,32.715,41.016,36.621,51.270,86.426,0
1539620261.801,39.062,42.969,37.109,59.570,71.777,0
1539620261.805,40.527,39.062,34.668,63.477,13.672,0
1539620261.809,41.504,39.551,35.156,57.129,74.219,0
1539620261.813,45.898,44.922,38.086,55.664,117.676,0
1539620261.817,39.062,44.922,38.574,55.664,58.594,0
1539620261.821,35.645,41.504,41.016,52.734,28.809,0
1539620261.825,39.062,42.480,40.527,52.734,-2.930,0
1539620261.829,38.086,44.434,35.156,53.223,-20.020,0
1539620261.833,39.551,40.527,35.645,47.363,73.730,0
1539620261.837,37.598,36.133,39.551,39.551,78.125,0
1539620261.840,32.227,37.109,36.621,38.574,28.320,0
1539620261.844,30.273,38.574,33.691,42.480,4.883,0
1539620261.848,32.227,41.504,37.109,42.480,0.488,0
1539620261.852,28.809,38.086,36.133,37.109,16.602,0
1539620261.856,20.996,32.227,35.645,35.156,-8.789,0
1539620261.860,25.391,41.992,39.551,43.945,9.277,0
1539620261.864,26.855,43.457,40.527,41.992,62.500,0
1539620261.868,22.461,38.574,37.598,34.180,46.875,0
1539620261.872,26.855,40.039,38.086,41.504,21.484,0
1539620261.876,28.809,41.016,40.527,45.410,21.973,0
1539620261.880,27.344,39.551,41.016,38.574,8.789,0
1539620261.883,27.832,39.062,40.527,40.039,41.504,0
1539620261.887,27.344,41.504,38.086,39.551,44.922,0
1539620261.891,27.344,39.551,38.574,35.645,0.977,0
1539620261.895,29.785,39.062,40.039,37.598,-27.832,0
1539620261.899,30.762,39.062,37.598,39.062,-36.621,0
1539620261.903,34.180,41.504,36.133,41.504,-27.344,0
1539620261.907,33.203,41.016,39.062,38.086,3.906,0
1539620261.911,29.785,39.062,41.992,37.109,35.156,0
1539620261.915,31.738,39.062,43.945,36.621,60.547,0
1539620261.919,32.227,39.062,42.480,38.086,87.402,0
1539620261.923,32.227,38.086,42.480,39.551,56.152,0
1539620261.926,32.715,38.574,46.387,38.086,76.172,0
1539620261.930,30.273,34.668,47.852,40.039,87.891,0
1539620261.934,29.297,32.715,44.922,40.527,61.523,0
1539620261.938,31.250,38.086,42.969,41.504,57.129,0
1539620261.942,25.391,39.551,44.922,40.527,28.809,0
1539620261.946,19.531,40.039,43.945,37.109,13.184,0
1539620261.950,24.414,41.992,39.551,36.621,-16.113,0
1539620261.954,27.344,41.016,41.504,41.016,6.348,0
1539620261.958,27.344,39.551,44.434,47.363,56.152,0
1539620261.962,29.785,40.527,43.457,47.852,64.941,0
1539620261.965,30.762,38.086,39.062,44.434,55.664,0
1539620261.969,31.250,39.062,41.016,44.434,-15.625,0
1539620261.973,31.250,38.574,40.039,41.016,5.859,0
1539620261.977,25.879,36.621,34.668,35.645,54.688,0
1539620261.981,19.043,38.086,35.156,38.574,45.898,0
1539620261.985,20.020,39.551,35.156,40.039,58.105,0
1539620261.989,25.391,39.062,33.691,41.504,91.797,0
1539620261.993,28.320,32.227,34.668,47.363,69.336,0
1539620261.997,30.273,33.203,35.645,51.270,92.285,0
1539620262.001,28.809,38.574,35.645,49.316,92.285,0
1539620262.005,24.414,36.133,35.645,46.875,64.453,0
1539620262.008,26.855,37.109,38.086,46.875,87.402,0
1539620262.012,30.762,38.086,40.039,47.363,57.617,0
1539620262.016,30.273,35.156,40.527,49.316,46.875,0
1539620262.020,31.738,36.621,39.551,42.969,35.645,0
1539620262.024,35.645,40.039,35.156,44.922,10.254,0
1539620262.028,38.574,40.527,35.156,45.410,80.078,0
1539620262.032,36.133,37.109,40.039,33.691,82.031,0
1539620262.036,33.203,37.598,38.086,38.086,50.781,0
1539620262.040,32.227,35.156,35.645,45.410,36.621,0
1539620262.044,24.414,30.762,34.180,42.969,75.195,0
1539620262.048,21.484,33.203,33.691,43.457,81.055,0
1539620262.051,26.367,31.738,36.133,47.852,18.066,0
1539620262.055,23.926,30.762,34.668,46.387,47.363,0
1539620262.059,24.414,32.227,33.691,41.992,76.660,0
1539620262.063,30.762,30.762,33.203,44.922,42.480,0
1539620262.067,30.273,33.691,34.180,48.340,39.551,0
1539620262.071,27.832,35.645,38.086,50.293,60.547,0
1539620262.075,29.785,37.109,37.109,51.758,15.137,0
1539620262.079,32.227,38.086,39.062,51.270,68.848,0
1539620262.083,31.738,37.109,38.574,49.316,143.066,0
1539620262.087,30.273,35.156,36.621,47.852,79.102,0
1539620262.090,31.738,36.621,36.621,47.852,35.645,0
1539620262.094,32.715,38.086,36.621,45.410,82.031,0
1539620262.098,33.691,38.574,36.133,48.340,69.336,0
1539620262.102,35.156,38.574,37.109,48.340,55.664,0
1539620262.106,32.715,37.598,39.062,43.945,7.324,0
1539620262.110,29.297,38.574,38.086,41.992,-31.738,1
1539620262.114,28.809,37.598,38.086,41.504,37.598,0
1539620262.118,28.809,35.645,40.039,45.410,53.711,0
1539620262.122,28.320,37.109,41.016,42.969,74.219,0
1539620262.126,28.809,32.715,39.062,39.551,135.742,0
1539620262.130,33.203,31.250,39.062,41.992,110.840,0
1539620262.133,30.762,36.621,38.086,40.039,31.250,0
1539620262.137,26.367,37.598,38.086,32.227,34.180,0
1539620262.141,27.344,39.551,37.598,32.715,86.426,0
1539620262.145,25.391,37.109,33.203,35.156,69.336,0
1539620262.149,22.949,34.668,32.227,32.715,71.777,0
1539620262.153,21.484,34.668,36.621,33.691,64.453,0
1539620262.157,24.414,34.668,36.621,35.156,52.246,0
1539620262.161,27.832,35.156,37.598,34.668,32.715,0
1539620262.165,27.832,37.109,40.039,29.297,25.391,0
1539620262.169,26.855,35.156,39.062,25.879,58.594,0
1539620262.173,26.367,35.645,38.574,29.297,62.012,0
1539620262.176,30.762,36.133,41.016,34.668,22.461,0
1539620262.180,30.273,34.668,38.574,34.668,-3.418,0
1539620262.184,26.367,36.621,37.109,33.203,46.875,0
1539620262.188,30.273,41.504,36.621,34.180,41.992,0
1539620262.192,30.762,44.922,35.645,32.227,-16.113,0
1539620262.196,26.367,42.969,38.574,30.762,7.812,0
1539620262.200,26.367,37.109,41.016,35.156,53.711,0
1539620262.204,29.785,34.180,38.574,34.180,38.086,0
1539620262.208,31.250,39.551,38.574,35.156,-7.812,0
1539620262.212,31.738,37.598,42.969,37.598,32.715,0
1539620262.215,26.367,38.574,40.527,37.109,104.492,0
1539620262.219,23.438,41.016,38.574,35.645,93.750,0
1539620262.223,23.438,38.086,41.992,33.203,52.246,0
1539620262.227,24.414,37.598,44.434,37.109,13.184,0
1539620262.231,24.414,38.086,44.434,40.039,-6.348,0
1539620262.235,24.414,38.086,41.016,40.527,21.973,0
1539620262.239,27.832,38.574,41.016,40.527,29.785,0
1539620262.243,29.785,37.109,41.992,40.527,19.531,0
1539620262.247,30.273,34.668,42.480,41.504,13.672,0
1539620262.251,27.832,35.645,41.504,37.109,1.953,0
1539620262.255,26.367,35.645,38.574,32.227,25.879,0
1539620262.258,25.879,34.180,37.598,29.785,51.270,0
1539620262.262,24.414,36.133,35.156,26.367,54.199,0
1539620262.266,20.996,35.645,33.203,28.809,44.922,0
1539620262.270,20.508,35.156,34.180,32.227,55.176,0
1539620262.274,21.484,36.133,35.156,32.715,38.574,0
1539620262.278,21.973,36.621,35.645,33.203,3.906,0
1539620262.282,25.391,39.062,40.039,35.156,-26.367,0
1539620262.286,26.855,38.574,41.016,30.273,-29.297,0
1539620262.290,25.879,29.785,40.039,29.785,42.480,0
1539620262.294,28.320,28.809,37.598,35.156,65.918,0
1539620262.298,24.902,36.621,37.598,32.227,5.859,0
1539620262.301,23.438,37.598,39.551,29.297,-17.090,0
1539620262.305,29.785,37.109,40.527,30.273,28.320,0
1539620262.309,25.879,40.039,38.086,32.715,36.133,0
1539620262.313,20.508,38.574,37.598,33.203,43.945,0
1539620262.317,24.414,38.086,37.598,33.203,82.520,0
1539620262.321,21.484,41.504,35.645,30.273,68.848,0
1539620262.325,22.949,41.504,36.621,33.203,38.086,0
1539620262.329,25.391,42.480,37.598,33.691,113.281,0
1539620262.333,23.926,42.969,37.109,31.250,103.027,0
1539620262.337,20.996,41.016,36.621,33.203,21.973,0
1539620262.340,19.531,39.062,36.133,30.762,37.109,0
1539620262.344,24.414,36.621,37.598,28.320,40.527,0
1539620262.348,25.879,36.621,39.551,29.297,23.438,0
1539620262.352,25.391,34.668,37.598,26.855,46.875,0
1539620262.356,25.879,41.992,35.156,29.785,64.453,0
1539620262.360,25.879,35.156,38.574,34.180,21.484,0
1539620262.364,27.344,24.902,36.133,38.086,46.875,0
1539620262.368,26.855,36.133,34.180,35.156,23.926,0
1539620262.372,27.344,40.527,35.156,30.762,-19.531,0
1539620262.376,33.691,41.016,36.621,33.691,28.809,0
1539620262.380,35.156,40.039,37.109,33.691,64.453,0
1539620262.383,28.809,36.621,33.691,31.738,38.086,0
1539620262.387,31.738,34.668,34.180,30.273,57.129,0
1539620262.391,31.738,33.203,39.062,29.785,52.246,0
1539620262.395,23.438,33.203,39.062,27.832,42.480,0
1539620262.399,25.391,34.180,33.691,27.832,42.969,0
1539620262.403,30.762,33.203,32.715,30.762,23.438,0
1539620262.407,29.297,32.227,34.668,30.273,47.363,0
1539620262.411,34.180,35.645,30.273,37.109,48.828,0
1539620262.415,36.133,37.109,29.785,37.598,48.828,0
1539620262.419,34.180,32.715,35.156,32.715,23.438,0
1539620262.423,37.109,31.738,36.621,38.086,7.812,0
1539620262.426,36.621,30.762,37.109,35.645,41.016,0
1539620262.430,34.180,32.227,36.133,29.785,22.461,0
1539620262.434,32.227,35.156,35.156,33.691,22.949,0
1539620262.438,30.762,31.250,36.133,33.691,60.547,0
1539620262.442,32.715,21.484,34.668,26.855,50.781,0
1539620262.446,31.738,27.344,33.691,26.367,46.875,0
1539620262.450,28.320,33.691,36.621,28.320,71.777,0
1539620262.454,27.832,34.180,34.668,24.902,45.410,0
1539620262.458,27.344,37.598,33.691,20.508,40.527,0
1539620262.462,27.832,37.109,36.133,26.367,49.316,0
1539620262.465,30.762,35.645,38.086,29.297,35.156,0
1539620262.469,30.273,36.133,38.574,24.414,-0.977,0
1539620262.473,26.367,37.109,34.180,20.508,54.199,0
1539620262.477,24.414,35.645,32.715,20.996,64.941,0
1539620262.481,22.949,36.133,32.715,20.996,-43.457,0
1539620262.485,26.855,34.668,33.203,23.926,14.648,0
1539620262.489,26.367,33.691,31.250,25.879,75.195,0
1539620262.493,21.973,37.598,33.691,23.438,73.730,0
1539620262.497,26.855,39.062,36.133,26.367,49.805,0
1539620262.501,26.367,39.551,30.762,25.391,28.809,0
1539620262.505,25.391,38.574,30.762,23.926,68.359,0
1539620262.508,28.809,39.551,33.203,26.855,31.250,0
1539620262.512,27.344,37.598,31.250,22.461,1.953,0
1539620262.516,25.391,32.715,32.715,19.043,25.879,0
1539620262.520,27.832,41.016,35.645,24.902,44.434,0
1539620262.524,29.297,46.875,33.203,20.996,56.152,0
1539620262.528,27.344,46.875,34.668,19.043,56.641,0
1539620262.532,30.273,47.363,37.598,23.926,12.207,0
1539620262.536,30.273,44.922,35.645,25.879,19.531,0
1539620262.540,25.391,40.527,36.621,28.809,-12.695,0
1539620262.544,25.391,38.574,37.598,26.855,27.344,0
1539620262.548,22.949,39.551,35.156,23.926,84.473,0
1539620262.551,23.438,38.574,35.645,25.879,42.969,0
1539620262.555,27.344,38.574,36.621,30.273,43.457,0
1539620262.559,25.879,37.109,34.668,28.320,37.109,0
1539620262.563,26.855,36.133,35.645,25.879,22.949,0
1539620262.567,30.762,37.109,35.156,27.344,-2.441,0
1539620262.571,28.809,33.203,37.109,24.902,-7.812,0
1539620262.575,22.461,34.180,36.621,25.391,13.184,0
1539620262.579,20.020,33.203,33.203,24.414,58.594,0
1539620262.583,26.855,29.785,34.668,26.855,42.969,0
1539620262.587,30.762,33.691,35.645,29.297,35.156,0
1539620262.590,25.391,37.109,30.762,25.391,51.758,0
1539620262.594,24.414,41.016,27.832,28.320,49.805,0
1539620262.598,26.367,40.039,33.691,31.738,78.613,0
1539620262.602,24.414,38.574,36.133,30.273,60.059,0
1539620262.606,21.973,38.574,32.715,24.902,87.402,0
1539620262.610,22.461,37.109,32.227,24.902,120.117,0
1539620262.614,25.391,37.109,38.086,29.785,99.121,0
1539620262.618,26.855,37.109,38.574,28.809,121.094,0
1539620262.622,25.391,36.133,34.668,24.902,79.590,0
1539620262.626,28.320,34.668,36.133,25.391,0.000,0
1539620262.630,27.832,33.203,36.621,24.902,31.250,0
1539620262.633,25.391,33.691,33.691,20.996,42.480,0
1539620262.637,28.809,36.133,33.691,21.484,-2.441,0
1539620262.641,29.785,39.062,35.645,24.414,-10.742,0
1539620262.645,29.297,37.109,35.645,25.391,19.531,0
1539620262.649,30.273,34.180,37.109,24.902,59.082,0
1539620262.653,32.715,40.527,33.203,27.344,46.387,0
1539620262.657,34.180,41.992,30.273,32.227,36.133,0
1539620262.661,31.738,40.527,33.203,34.180,13.184,0
1539620262.665,31.738,42.969,35.645,30.762,15.625,0
1539620262.669,39.551,43.457,35.156,29.785,-15.137,0
1539620262.673,35.156,40.527,35.645,31.738,-83.984,0
1539620262.676,30.273,41.016,37.598,33.691,-25.391,0
1539620262.680,32.715,41.016,37.598,34.180,21.484,0
1539620262.684,27.832,39.062,38.086,35.645,50.781,0
1539620262.688,28.809,40.527,36.621,35.645,48.340,0
1539620262.692,30.762,41.504,35.645,34.668,17.090,0
1539620262.696,26.855,39.551,35.156,32.715,33.203,0
1539620262.700,27.832,41.504,33.203,32.227,47.852,0
1539620262.704,28.320,41.504,32.227,31.250,60.059,0
1539620262.708,28.809,36.621,34.180,34.180,65.918,0
1539620262.712,30.273,36.621,35.156,34.668,57.617,0
1539620262.715,27.832,38.574,33.691,30.762,19.043,0
1539620262.719,27.832,35.156,33.691,35.645,0.977,0
1539620262.723,33.203,33.691,36.133,29.785,7.812,0
1539620262.727,30.762,41.016,36.621,25.879,21.973,0
1539620262.731,26.855,41.016,33.691,31.250,29.297,0
1539620262.735,29.785,39.551,36.133,33.691,31.738,0
1539620262.739,30.762,41.016,38.574,35.645,10.742,0
1539620262.743,32.715,38.574,36.133,33.691,22.949,0
1539620262.747,32.227,38.574,37.598,35.645,38.574,0
1539620262.751,30.762,38.574,39.062,38.574,19.531,0
1539620262.755,32.227,36.621,36.133,41.016,24.414,0
1539620262.758,28.809,37.109,36.133,37.598,16.113,0
1539620262.762,25.391,36.621,38.574,33.691,5.371,0
1539620262.766,24.414,36.133,38.574,33.203,20.508,0
1539620262.770,24.902,37.598,35.156,31.738,24.902,0
1539620262.774,24.902,38.574,36.621,31.738,31.250,0
1539620262.778,22.461,38.086,38.574,31.250,57.129,0
1539620262.782,24.902,34.180,38.574,28.320,58.594,0
1539620262.786,26.367,27.832,39.551,24.902,36.621,0
1539620262.790,20.508,29.785,36.621,30.273,46.875,0
1539620262.794,21.973,34.668,32.715,33.203,18.066,0
1539620262.798,26.367,35.645,35.156,32.715,-11.230,0
1539620262.801,22.949,36.621,37.109,33.691,25.391,0
1539620262.805,20.996,35.156,35.645,30.762,10.742,0
1539620262.809,24.414,34.180,36.133,33.203,20.020,0
1539620262.813,23.926,33.203,34.180,35.645,45.410,0
1539620262.817,20.020,33.691,37.109,33.691,20.020,0
1539620262.821,21.484,35.156,39.551,35.645,28.809,0
1539620262.825,20.996,33.691,37.598,33.203,50.781,0
1539620262.829,20.508,30.762,36.621,29.785,35.156,0
1539620262.833,22.461,29.297,38.086,33.203,48.828,0
1539620262.837,19.531,31.738,40.527,34.180,56.641,0
1539620262.840,22.461,31.738,38.086,29.297,35.156,0
1539620262.844,27.344,26.367,38.574,31.738,4.395,0
1539620262.848,25.879,28.809,40.527,34.180,-17.090,0
1539620262.852,24.414,36.621,38.086,35.156,5.371,0
1539620262.856,23.438,41.992,38.086,38.086,45.410,0
1539620262.860,20.996,39.062,39.062,31.738,49.805,0
1539620262.864,25.879,37.109,36.133,29.785,34.668,0
1539620262.868,29.297,37.109,34.668,33.203,24.414,0
1539620262.872,27.344,35.645,35.156,31.738,25.391,0
1539620262.876,25.879,35.645,36.621,29.785,56.152,0
1539620262.880,24.902,33.691,37.109,28.809,70.801,0
1539620262.883,26.855,36.621,37.109,31.250,25.391,0
1539620262.887,24.902,36.621,39.062,30.762,42.969,0
1539620262.891,21.484,36.621,39.062,25.391,60.059,0
1539620262.895,23.926,39.062,38.086,26.367,47.363,0
1539620262.899,23.438,38.574,37.598,31.738,86.426,0
1539620262.903,20.020,33.691,39.551,30.762,49.805,0
1539620262.907,20.996,30.762,41.016,29.297,29.785,0
1539620262.911,22.461,28.809,40.039,34.180,21.973,0
1539620262.915,24.902,34.668,41.504,34.180,-20.020,0
1539620262.919,20.996,40.527,38.574,26.367,40.527,0
1539620262.923,15.625,37.598,37.109,22.461,42.969,0
1539620262.926,18.066,38.086,41.504,25.391,0.488,0
1539620262.930,19.043,38.574,43.457,27.344,4.395,0
1539620262.934,16.113,36.133,42.480,27.344,-15.137,0
1539620262.938,16.113,40.039,43.945,26.855,12.695,0
1539620262.942,19.531,43.457,44.434,30.762,58.105,0
1539620262.946,22.461,42.969,39.062,32.227,27.832,0
1539620262.950,25.879,44.922,36.621,32.227,83.496,0
1539620262.954,29.297,44.434,42.969,35.645,40.527,0
1539620262.958,30.762,45.410,45.898,38.086,-28.320,0
1539620262.962,30.273,44.922,44.922,33.691,37.598,0
1539620262.965,25.391,41.504,42.480,25.391,25.391,0
1539620262.969,26.367,39.062,40.039,30.273,69.336,0
1539620262.973,25.879,39.551,40.039,30.762,101.562,0
1539620262.977,21.973,35.156,41.504,24.902,46.875,0
1539620262.981,21.973,27.344,39.062,24.414,24.414,0
1539620262.985,21.484,33.691,35.156,24.902,13.672,0
1539620262.989,24.902,39.551,38.574,28.809,39.551,0
1539620262.993,20.996,37.598,37.598,30.273,120.117,0
1539620262.997,14.160,35.645,32.715,27.344,76.172,0
1539620263.001,20.020,35.156,36.621,29.785,-18.066,0
1539620263.005,21.973,36.621,41.992,33.203,1.953,0
1539620263.008,20.020,38.086,40.039,26.367,30.273,0
1539620263.012,16.602,39.062,36.621,19.531,53.223,0
1539620263.016,18.066,38.086,36.133,19.531,86.426,0
1539620263.020,25.879,37.598,35.156,25.391,74.219,0
1539620263.024,20.508,37.598,34.668,24.414,36.133,0
1539620263.028,15.625,34.180,34.180,20.020,18.555,0
1539620263.032,19.531,34.668,34.180,24.414,26.367,0
1539620263.036,20.996,36.621,36.621,23.438,30.762,0
1539620263.040,21.973,27.344,36.621,20.996,22.461,0
1539620263.044,17.090,26.367,34.180,22.461,32.715,0
1539620263.048,20.508,36.133,35.156,29.297,0.488,0
1539620263.051,23.926,36.133,37.598,29.785,26.367,0
1539620263.055,21.973,35.645,36.621,21.973,59.082,0
1539620263.059,26.367,36.621,33.691,30.762,-7.324,0
1539620263.063,27.832,37.109,36.133,40.527,12.695,0
1539620263.067,25.879,35.156,37.598,36.133,5.371,0
1539620263.071,30.762,37.109,38.086,35.645,2.441,0
1539620263.075,37.109,38.574,39.551,38.574,22.461,0
1539620263.079,35.156,34.668,38.086,40.527,-1.465,0
1539620263.083,33.203,36.133,39.062,44.922,9.766,0
1539620263.087,32.227,38.574,38.574,44.434,-38.574,0
1539620263.090,34.180,38.086,39.062,42.969,-30.762,0
1539620263.094,34.668,39.551,41.016,45.898,52.246,0
1539620263.098,35.156,40.039,41.992,44.922,35.156,0
1539620263.102,34.668,36.133,41.504,40.527,26.855,0
1539620263.106,29.297,31.250,36.621,40.039,20.996,0
1539620263.110,28.809,36.621,37.598,32.715,75.195,0
1539620263.114,32.227,41.016,41.016,31.250,72.754,0
1539620263.118,33.691,41.992,38.574,32.715,22.461,0
1539620263.122,35.156,41.992,36.133,32.227,22.461,0
1539620263.126,29.297,38.086,38.086,41.016,-0.977,0
1539620263.130,26.367,33.691,40.039,37.598,50.293,0
1539620263.133,25.879,35.156,42.480,26.855,68.848,0
1539620263.137,17.090,35.645,39.062,25.391,48.340,0
1539620263.141,15.625,32.227,39.062,22.461,14.160,0
1539620263.145,20.508,33.691,40.527,18.066,40.527,0
1539620263.149,14.648,37.598,36.621,14.160,98.633,0
1539620263.153,15.137,36.621,32.715,14.648,33.203,0
1539620263.157,20.996,35.645,32.715,23.926,16.602,0
1539620263.161,22.461,34.180,34.180,22.949,0.488,0
1539620263.165,25.391,33.203,32.227,20.508,-17.578,0
1539620263.169,26.367,36.621,31.738,23.926,-7.812,0
1539620263.173,30.273,37.598,32.715,22.949,14.648,0
1539620263.176,32.715,38.574,33.691,27.832,62.012,0
1539620263.180,25.879,39.551,36.133,32.227,18.066,0
1539620263.184,22.949,37.598,37.598,28.809,-2.441,0
1539620263.188,21.484,36.621,36.133,27.344,41.504,0
1539620263.192,23.926,35.645,36.133,30.273,32.227,0
1539620263.196,27.832,35.645,35.156,32.227,0.488,0
1539620263.200,24.902,41.504,30.273,29.785,3.906,0
1539620263.204,27.344,34.668,28.809,25.879,9.277,0
1539620263.208,31.250,31.250,29.785,27.344,16.113,0
1539620263.212,25.879,41.016,29.785,29.785,68.359,0
1539620263.215,24.902,42.969,34.180,30.273,78.613,0
1539620263.219,28.809,41.016,34.180,29.297,48.340,0
1539620263.223,29.297,39.062,29.785,29.785,29.297,0
1539620263.227,28.320,39.062,32.715,33.203,72.754,0
1539620263.231,33.691,39.062,33.691,35.645,85.449,0
1539620263.235,38.086,41.992,34.180,37.598,-50.293,0
1539620263.239,37.109,42.480,37.109,35.645,-44.922,0
1539620263.243,32.227,41.504,35.645,37.109,-7.324,0
1539620263.247,31.738,40.527,35.156,38.086,-47.363,0
1539620263.251,33.203,41.504,34.180,35.645,7.324,0
1539620263.255,31.250,43.945,34.180,37.109,42.480,0
1539620263.258,30.273,43.457,35.156,31.738,42.969,0
1539620263.262,32.227,42.969,35.156,31.250,26.367,0
1539620263.266,29.297,41.504,34.180,30.762,-5.859,0
1539620263.270,26.855,39.551,33.691,29.297,-18.555,0
1539620263.274,28.320,40.527,34.668,34.180,14.160,0
1539620263.278,26.855,34.668,35.156,38.086,31.738,0
1539620263.282,26.855,31.738,37.109,36.621,4.883,0
1539620263.286,28.809,39.551,34.668,29.785,27.832,0
1539620263.290,27.344,40.527,32.715,29.297,63.477,0
1539620263.294,21.484,39.062,33.203,26.855,93.750,0
1539620263.298,19.043,40.527,32.227,22.461,85.449,0
1539620263.301,20.508,41.992,34.180,27.344,23.438,0
1539620263.305,22.461,39.551,35.156,25.391,16.113,0
1539620263.309,22.461,35.645,33.691,23.438,72.266,0
1539620263.313,22.461,34.180,31.738,26.855,62.500,0
1539620263.317,22.949,33.691,33.691,26.367,36.133,0
1539620263.321,23.438,34.180,35.156,26.855,76.660,0
1539620263.325,26.367,36.621,33.203,34.180,93.750,0
1539620263.329,26.367,35.156,33.691,31.250,39.551,0
1539620263.333,27.344,33.203,34.668,27.344,26.855,0
1539620263.337,29.785,34.668,33.691,28.320,72.266,0
1539620263.340,21.973,33.691,33.691,20.996,60.059,0
1539620263.344,20.020,32.715,34.180,20.996,29.297,0
1539620263.348,20.508,34.180,33.691,25.879,-2.441,0
1539620263.352,21.484,37.109,33.691,30.273,-9.277,0
1539620263.356,24.414,31.250,35.645,31.250,12.695,0
1539620263.360,23.926,30.762,33.203,28.809,49.805,0
1539620263.364,22.949,36.133,33.203,27.832,37.109,0
1539620263.368,22.461,38.574,33.203,30.273,24.902,0
1539620263.372,22.949,35.645,32.715,27.832,25.391,0
1539620263.376,20.020,34.180,35.156,25.391,72.266,0
1539620263.380,19.531,34.668,35.156,27.344,84.961,0
1539620263.383,20.996,32.227,33.691,25.879,64.453,0
1539620263.387,24.414,33.203,30.273,25.879,19.531,0
1539620263.391,28.809,37.109,31.738,27.832,6.348,0
1539620263.395,30.762,37.109,35.156,30.762,24.414,0
1539620263.399,27.344,36.133,33.203,31.738,27.344,0
1539620263.403,23.926,35.645,32.715,25.879,4.883,0
1539620263.407,26.367,36.621,31.250,28.320,18.066,0
1539620263.411,24.902,36.621,31.738,33.203,76.172,0
1539620263.415,24.414,37.598,33.203,28.320,59.082,0
1539620263.419,23.926,35.645,32.715,25.879,30.762,0
1539620263.423,16.113,35.645,32.227,22.461,33.203,0
1539620263.426,14.160,36.621,35.645,16.602,54.688,0
1539620263.430,15.625,33.691,35.156,12.695,11.719,0
1539620263.434,17.578,33.203,34.180,20.508,-14.648,0
1539620263.438,19.043,33.691,35.645,27.832,38.574,0
1539620263.442,22.461,32.227,34.668,28.320,24.902,0
1539620263.446,22.461,29.297,34.668,29.297,20.508,0
1539620263.450,16.113,28.809,35.645,32.227,19.043,0
1539620263.454,15.625,30.273,38.574,39.551,21.484,0
1539620263.458,18.555,31.738,39.062,36.621,33.203,0
1539620263.462,20.996,28.809,36.621,33.203,23.926,0
1539620263.465,20.020,34.668,32.715,32.227,86.914,0
1539620263.469,17.090,40.527,32.715,29.297,108.398,0
1539620263.473,20.996,39.062,35.156,28.809,17.090,0
1539620263.477,20.020,41.504,34.668,29.785,27.344,0
1539620263.481,17.090,44.434,34.180,30.273,29.785,0
1539620263.485,21.973,41.992,35.645,34.180,-44.434,0
1539620263.489,27.832,40.527,36.621,36.133,-2.441,0
1539620263.493,25.879,41.992,35.156,31.738,32.227,0
1539620263.497,22.949,42.480,32.715,28.320,31.250,1
1539620263.501,25.391,41.016,32.715,28.809,84.961,0
1539620263.505,22.949,40.527,34.668,32.715,45.410,0
1539620263.508,21.484,38.574,32.227,29.785,9.766,0
1539620263.512,24.414,38.574,30.762,27.344,31.250,0
1539620263.516,25.391,39.551,34.180,29.297,40.527,0
1539620263.520,26.367,36.621,35.645,25.879,78.613,0
1539620263.524,25.879,38.574,34.668,29.297,16.602,0
1539620263.528,26.367,36.133,33.691,31.738,4.395,0
1539620263.532,31.738,34.668,36.133,34.180,84.473,0
1539620263.536,34.180,42.480,35.645,39.551,63.965,0
1539620263.540,26.855,44.434,33.203,32.715,29.297,0
1539620263.544,24.414,43.457,35.645,28.320,86.426,0
1539620263.548,25.879,42.969,37.109,35.156,33.691,0
1539620263.551,23.926,42.969,35.645,34.180,19.043,0
1539620263.555,23.926,43.457,34.180,25.391,71.777,0
1539620263.559,27.344,45.410,36.621,30.273,60.059,0
1539620263.563,29.297,42.969,38.574,37.109,101.562,0
1539620263.567,28.320,37.598,37.109,34.668,75.195,0
1539620263.571,30.762,38.574,38.086,37.598,23.926,0
1539620263.575,35.156,40.039,40.527,38.086,15.137,0
1539620263.579,33.203,40.039,41.504,35.156,42.480,0
1539620263.583,26.855,41.016,40.527,33.691,53.223,0
1539620263.587,27.344,42.480,39.551,33.203,-19.043,0
1539620263.590,28.809,41.992,39.062,35.156,-21.484,0
1539620263.594,28.320,43.945,38.574,35.645,2.930,0
1539620263.598,31.250,45.898,39.551,37.109,58.105,0
1539620263.602,31.250,45.898,37.598,37.598,63.477,0
1539620263.606,29.785,41.016,36.621,37.109,45.410,0
1539620263.610,28.320,39.062,40.527,34.668,75.195,0
1539620263.614,27.344,39.062,41.016,33.691,118.652,0
1539620263.618,30.273,36.133,38.086,39.062,127.441,0
1539620263.622,31.738,37.598,39.551,38.574,71.289,0
1539620263.626,31.250,40.039,41.992,32.715,13.184,0
1539620263.630,28.809,41.016,40.527,35.156,12.207,0
1539620263.633,28.809,42.480,39.062,32.715,28.809,0
1539620263.637,27.344,41.504,37.598,31.738,50.293,0
1539620263.641,25.391,39.551,39.062,33.691,39.551,0
1539620263.645,22.949,41.504,37.109,31.738,35.645,0
1539620263.649,24.902,41.504,36.621,32.715,28.809,0
1539620263.653,25.879,39.062,41.016,34.180,23.926,0
1539620263.657,22.461,38.574,39.551,35.156,39.551,0
1539620263.661,22.949,38.086,39.062,34.180,-1.465,0
1539620263.665,25.391,39.551,41.016,32.227,2.930,0
1539620263.669,26.855,38.574,41.016,32.227,17.090,0
1539620263.673,29.297,38.574,41.016,30.273,44.434,0
1539620263.676,32.227,41.016,40.039,29.785,39.062,0
1539620263.680,24.902,37.598,38.574,29.785,-4.395,0
1539620263.684,19.043,39.062,39.551,30.273,66.406,0
1539620263.688,22.461,42.480,39.551,33.203,92.773,0
1539620263.692,25.391,40.039,39.062,30.762,70.801,0
1539620263.696,24.414,39.551,37.598,25.879,37.598,0
1539620263.700,22.949,39.062,34.668,25.879,57.129,0
1539620263.704,29.297,41.016,39.062,30.762,46.875,0
1539620263.708,29.785,37.109,37.598,31.250,31.738,0
1539620263.712,29.297,32.227,33.691,28.809,44.434,0
1539620263.715,29.297,39.551,36.133,27.832,12.207,0
1539620263.719,28.809,41.992,37.598,28.809,3.418,0
1539620263.723,26.367,41.016,35.645,28.809,38.574,0
1539620263.727,24.902,42.969,35.156,25.391,75.684,0
1539620263.731,28.809,42.480,35.645,28.809,16.113,0
1539620263.735,27.832,40.527,35.645,30.273,-36.621,0
1539620263.739,26.367,40.527,35.156,22.949,-7.324,0
1539620263.743,25.879,37.109,33.203,23.438,1.953,0
1539620263.747,32.227,32.715,35.645,33.691,8.789,0
1539620263.751,39.062,37.109,34.668,36.621,18.066,0
1539620263.755,35.156,44.922,29.785,28.320,55.664,0
1539620263.758,35.156,44.434,32.227,25.879,3.906,0
1539620263.762,33.203,45.410,35.156,28.809,7.812,0
1539620263.766,27.344,49.316,31.738,19.043,68.359,0
1539620263.770,25.879,46.387,30.273,16.113,62.500,0
1539620263.774,23.926,43.457,30.762,22.949,76.660,0
1539620263.778,24.414,41.992,27.832,22.949,78.613,0
1539620263.782,27.832,41.504,31.250,23.926,80.078,0
1539620263.786,28.809,42.480,33.203,20.508,67.871,0
1539620263.790,24.414,41.016,28.809,17.578,32.227,0
1539620263.794,25.879,41.992,29.297,22.461,-18.555,0
1539620263.798,29.297,40.527,33.691,25.391,-1.465,0
1539620263.801,21.973,37.598,35.645,24.414,35.156,0
1539620263.805,16.602,37.598,36.621,15.625,27.832,0
1539620263.809,14.160,31.738,33.691,12.207,45.410,0
1539620263.813,17.090,27.344,32.715,14.160,41.016,0
1539620263.817,21.973,34.180,33.691,16.113,35.645,0
1539620263.821,20.508,38.086,34.668,18.555,30.762,0
1539620263.825,20.508,37.598,33.691,16.602,22.461,0
1539620263.829,24.414,37.598,30.273,18.066,61.035,0
1539620263.833,25.879,36.621,27.344,20.020,14.160,0
1539620263.837,25.879,34.668,29.297,23.926,25.879,0
1539620263.840,25.879,33.691,28.809,26.367,65.430,0
1539620263.844,23.438,33.203,26.855,26.367,21.973,0
1539620263.848,24.414,32.715,33.203,20.996,52.734,0
1539620263.852,25.391,35.156,33.203,15.137,71.777,0
1539620263.856,23.438,35.645,28.809,14.648,56.152,0
1539620263.860,26.367,34.180,30.273,20.020,75.684,0
1539620263.864,26.367,33.203,33.691,23.926,70.312,0
1539620263.868,20.508,32.715,34.180,20.508,-4.395,0
1539620263.872,18.066,33.203,32.227,22.461,-49.805,0
1539620263.876,18.555,31.738,31.738,25.391,-0.977,0
1539620263.880,20.020,31.738,32.715,23.438,18.555,0
1539620263.883,22.461,36.133,34.180,21.484,52.734,0
1539620263.887,26.855,34.668,34.668,21.973,66.895,0
1539620263.891,23.438,27.832,33.203,24.902,18.555,0
1539620263.895,21.973,33.203,33.691,23.438,24.902,0
1539620263.899,27.344,33.203,34.668,26.367,13.672,0
1539620263.903,31.738,27.832,38.086,28.809,45.898,0
1539620263.907,36.133,37.598,41.016,32.715,70.801,0
1539620263.911,33.691,42.969,39.551,35.645,76.172,0
1539620263.915,31.738,41.504,39.062,30.273,82.520,0
1539620263.919,32.227,38.574,38.086,27.344,12.207,0
1539620263.923,31.738,38.574,38.086,27.832,53.711,0
1539620263.926,29.785,35.645,37.109,29.785,53.711,0
1539620263.930,23.438,35.645,36.621,28.320,-9.766,0
1539620263.934,22.949,37.109,36.621,24.414,-11.719,0
1539620263.938,27.344,36.621,34.668,27.344,35.645,0
1539620263.942,25.879,37.109,34.180,24.902,28.320,0
1539620263.946,23.926,37.598,32.715,29.785,12.207,0
1539620263.950,29.297,34.180,33.691,31.738,62.500,0
1539620263.954,30.762,33.691,35.156,27.832,79.590,0
1539620263.958,27.344,39.551,34.180,30.273,43.457,0
1539620263.962,27.344,38.574,32.227,27.344,28.809,0
1539620263.965,28.320,34.668,31.738,24.902,33.203,0
1539620263.969,25.879,34.180,34.180,28.320,25.879,0
1539620263.973,23.926,37.109,32.715,29.297,22.949,0
1539620263.977,26.855,35.156,33.691,26.855,1.465,0
1539620263.981,26.855,25.879,36.621,25.391,15.625,0
1539620263.985,22.949,27.832,34.668,27.344,55.176,0
1539620263.989,21.484,33.203,32.227,26.367,33.691,0
1539620263.993,20.020,36.621,30.273,23.926,22.461,0
1539620263.997,24.414,37.109,33.203,27.832,27.344,0
1539620264.001,26.367,33.691,33.691,29.297,33.203,0
1539620264.005,27.344,34.180,30.762,27.344,35.645,0
1539620264.008,30.762,33.691,30.273,31.738,17.090,0
1539620264.012,30.273,32.227,31.738,36.133,50.781,0
1539620264.016,28.320,29.785,33.691,32.227,61.523,0
1539620264.020,27.344,34.180,32.227,29.297,62.012,0
1539620264.024,27.344,34.180,32.227,28.809,47.852,0
1539620264.028,25.879,30.273,34.668,25.391,3.906,0
1539620264.032,21.973,28.320,36.133,25.879,58.594,0
1539620264.036,23.926,26.855,33.203,30.273,39.062,0
1539620264.040,22.949,27.344,34.668,25.879,-31.250,0
1539620264.044,19.531,28.320,36.621,21.484,-14.160,0
1539620264.048,22.461,30.762,36.133,24.414,13.672,0
1539620264.051,24.414,32.715,37.109,30.273,30.273,0
1539620264.055,25.391,25.391,34.668,28.809,48.828,0
1539620264.059,29.785,22.949,34.668,27.344,25.879,0
1539620264.063,28.809,33.691,36.621,24.414,27.344,0
1539620264.067,24.902,36.621,36.133,23.926,79.102,0
1539620264.071,26.855,35.156,34.668,31.250,74.219,0
1539620264.075,29.785,35.645,33.691,30.762,81.543,0
1539620264.079,24.902,35.645,32.227,23.926,41.992,0
1539620264.083,17.090,34.668,31.738,23.438,25.391,0
1539620264.087,20.020,32.715,37.109,23.926,1.953,0
1539620264.090,20.508,30.762,37.598,19.043,37.109,0
1539620264.094,18.555,34.180,34.668,20.020,89.844,0
1539620264.098,20.020,33.203,37.109,22.461,65.918,0
1539620264.102,21.973,29.785,41.016,23.926,31.738,0
1539620264.106,24.414,33.203,38.574,29.297,22.949,0
1539620264.110,26.367,30.273,37.109,26.855,16.113,0
1539620264.114,23.926,25.391,36.621,20.996,54.199,0
1539620264.118,20.996,26.367,37.109,24.902,83.984,0
1539620264.122,22.949,28.320,38.086,28.809,68.848,0
1539620264.126,22.461,28.320,34.180,25.391,50.293,0
1539620264.130,23.438,28.320,35.156,25.879,41.016,0
1539620264.133,26.367,28.809,38.086,24.902,57.617,0
1539620264.137,23.438,26.367,35.156,20.020,58.594,0
1539620264.141,20.020,26.855,34.180,22.949,20.508,0
1539620264.145,15.137,30.762,38.086,25.391,-1.465,0
1539620264.149,11.719,29.785,38.086,24.414,45.410,0
1539620264.153,15.137,29.297,34.668,23.926,94.238,0
1539620264.157,21.973,28.809,32.715,25.391,82.031,0
1539620264.161,25.879,30.762,34.180,23.926,76.660,0
1539620264.165,23.926,33.203,34.668,24.902,29.297,0
1539620264.169,22.461,32.715,36.133,30.762,33.691,0
1539620264.173,21.484,30.273,39.062,33.203,50.781,0
1539620264.176,20.020,29.297,37.598,25.391,72.266,0
1539620264.180,20.996,28.809,37.598,22.461,36.621,0
1539620264.184,23.926,30.273,41.016,23.438,-76.660,0
1539620264.188,22.949,28.320,41.992,22.949,-78.613,0
1539620264.192,20.020,27.344,43.457,25.391,13.672,0
1539620264.196,20.020,29.785,43.457,28.320,19.531,0
1539620264.200,20.020,30.273,39.062,32.715,16.113,0
1539620264.204,21.973,29.297,37.598,29.785,48.828,0
1539620264.208,21.484,28.320,38.574,25.879,62.012,0
1539620264.212,18.555,29.785,37.109,23.438,66.406,0
1539620264.215,21.484,27.832,36.621,23.926,68.359,0
1539620264.219,23.926,24.902,38.574,27.832,36.621,0
1539620264.223,22.461,25.391,39.551,23.438,-9.766,0
1539620264.227,18.555,25.391,32.715,21.484,15.625,0
1539620264.231,15.625,32.715,30.273,22.461,52.734,0
1539620264.235,17.578,35.156,37.109,22.949,70.801,0
1539620264.239,20.996,36.621,39.062,26.367,133.301,0
1539620264.243,18.555,38.086,38.574,23.438,102.539,0
1539620264.247,19.043,35.645,41.016,26.855,47.852,0
1539620264.251,23.926,34.180,39.062,32.715,78.125,0
1539620264.255,21.973,34.180,38.086,32.227,77.148,0
1539620264.258,21.973,35.645,38.086,33.203,10.254,0
1539620264.262,26.855,36.133,39.062,37.598,-11.719,0
1539620264.266,25.879,34.668,40.039,36.133,1.465,0
1539620264.270,25.879,33.203,34.180,33.203,15.137,0
1539620264.274,24.902,32.715,31.250,32.227,65.918,0
1539620264.278,21.973,34.180,31.250,27.832,63.477,0
1539620264.282,24.414,34.180,31.250,26.855,47.852,0
1539620264.286,26.367,33.203,34.180,27.832,62.012,0
1539620264.290,20.508,32.715,33.691,26.367,4.395,0
1539620264.294,21.973,33.203,31.250,28.320,54.688,0
1539620264.298,28.320,35.645,35.156,35.156,23.438,0
1539620264.301,28.320,36.621,36.133,37.109,-63.477,0
1539620264.305,27.344,34.180,35.156,35.156,30.762,0
1539620264.309,23.926,31.738,36.133,31.250,-5.371,0
1539620264.313,22.461,32.227,33.203,34.180,-15.625,0
1539620264.317,28.320,37.109,33.203,39.551,74.219,0
1539620264.321,29.297,38.574,33.691,37.598,95.703,0
1539620264.325,28.320,35.645,34.180,41.504,20.508,0
1539620264.329,27.344,32.227,39.551,38.086,-9.277,0
1539620264.333,21.484,34.180,40.039,31.250,32.227,0
1539620264.337,21.484,38.086,36.133,34.180,96.680,0
1539620264.340,24.902,32.227,37.109,34.180,55.176,0
1539620264.344,29.297,28.320,39.551,33.203,-6.348,0
1539620264.348,21.973,38.086,36.133,32.715,-3.418,0
1539620264.352,11.719,41.016,33.691,37.109,11.230,0
1539620264.356,11.230,36.621,37.109,37.598,99.121,0
1539620264.360,13.672,34.668,41.504,42.480,70.312,0
1539620264.364,19.043,33.691,41.992,43.945,47.363,0
1539620264.368,18.555,34.668,41.016,30.762,77.148,0
1539620264.372,16.602,36.133,40.527,30.273,53.223,0
1539620264.376,18.066,36.133,39.062,30.273,27.832,0
1539620264.380,19.531,33.691,40.039,28.809,-4.883,0
1539620264.383,21.484,32.227,39.062,33.203,-9.766,0
1539620264.387,20.996,34.668,39.062,30.273,10.742,0
1539620264.391,18.555,35.645,40.039,24.902,-7.812,0
1539620264.395,16.602,32.715,36.133,23.926,18.555,0
1539620264.399,20.996,32.715,35.156,25.391,61.523,0
1539620264.403,22.461,34.668,32.715,26.855,57.617,0
1539620264.407,22.461,37.109,33.691,30.762,57.129,0
1539620264.411,23.926,37.109,36.621,33.691,43.457,0
1539620264.415,23.926,36.133,37.109,36.133,69.824,0
1539620264.419,23.926,31.250,36.621,34.668,72.754,0
1539620264.423,22.461,25.391,31.250,30.762,39.062,0
1539620264.426,21.973,31.250,33.203,30.273,23.438,0
1539620264.430,25.879,34.668,37.598,31.738,46.875,0
1539620264.434,25.879,37.109,35.645,31.250,56.641,0
1539620264.438,25.879,36.621,36.621,28.320,13.672,0
1539620264.442,27.832,35.156,36.621,25.879,80.078,0
1539620264.446,30.273,38.086,31.738,30.273,90.332,0
1539620264.450,33.203,36.133,34.668,39.062,27.344,0
1539620264.454,26.855,34.668,38.574,35.156,6.348,0
1539620264.458,18.066,29.785,41.016,34.180,58.594,0
1539620264.462,15.625,26.855,46.875,34.180,87.402,0
1539620264.465,12.695,29.297,43.945,23.438,76.660,0
1539620264.469,11.719,28.809,41.016,22.949,83.496,0
1539620264.473,14.648,25.879,40.527,25.391,36.621,0
1539620264.477,14.160,25.879,39.062,26.855,14.160,0
1539620264.481,16.602,29.297,38.086,26.855,55.176,0
1539620264.485,20.020,31.250,36.133,28.320,82.520,0
1539620264.489,21.973,33.203,35.645,35.156,82.031,0
1539620264.493,21.484,33.203,36.621,35.645,34.668,0
1539620264.497,23.438,31.250,36.133,38.086,9.766,0
1539620264.501,24.902,30.762,33.203,36.621,36.621,0
1539620264.505,23.438,29.785,32.715,34.180,14.160,0
1539620264.508,28.320,30.273,34.180,35.156,13.184,0
1539620264.512,33.203,32.715,33.691,38.086,34.180,0
1539620264.516,28.809,25.879,33.691,38.574,-1.465,0
1539620264.520,27.832,26.855,31.738,32.715,7.324,0
1539620264.524,34.668,35.156,30.273,33.691,7.812,0
1539620264.528,32.227,34.668,31.738,38.086,0.000,0
1539620264.532,25.879,36.133,31.250,36.621,24.902,0
1539620264.536,28.809,39.062,30.762,40.039,48.340,0
1539620264.540,30.273,39.062,31.250,40.527,7.812,0
1539620264.544,26.855,37.109,29.297,38.086,-19.043,0
1539620264.548,26.367,36.133,29.297,45.410,-5.859,0
1539620264.551,28.809,35.156,33.203,43.457,15.137,0
1539620264.555,32.227,34.668,33.203,37.109,2.441,0
1539620264.559,31.738,38.086,31.250,36.133,2.930,0
1539620264.563,28.320,40.039,29.785,33.691,56.641,0
1539620264.567,29.785,38.574,27.344,35.645,53.223,0
1539620264.571,34.180,40.039,28.320,31.738,-1.465,0
1539620264.575,31.738,42.480,29.785,28.809,33.203,0
1539620264.579,26.855,40.039,30.762,26.855,49.316,0
1539620264.583,28.320,36.621,30.762,24.902,-21.973,0
1539620264.587,27.344,37.109,27.832,23.438,-11.719,0
1539620264.590,30.273,35.645,30.762,21.973,48.340,0
1539620264.594,36.621,34.668,36.133,31.738,73.730,0
1539620264.598,35.156,35.645,36.621,33.691,38.086,0
1539620264.602,30.762,34.668,35.156,24.414,12.695,0
1539620264.606,29.785,32.227,34.180,29.785,22.949,0
1539620264.610,34.668,27.832,32.715,32.227,35.156,0
1539620264.614,35.156,32.715,33.203,28.809,18.066,0
1539620264.618,34.180,41.016,36.133,30.762,49.316,0
1539620264.622,33.203,40.527,34.668,32.715,58.594,0
1539620264.626,31.250,40.527,34.668,32.715,47.363,0
1539620264.630,29.297,43.457,35.156,29.297,69.824,0
1539620264.633,28.809,42.969,32.715,29.785,46.875,0
1539620264.637,32.715,43.457,32.715,32.227,8.789,0
1539620264.641,32.227,41.992,34.668,27.832,34.180,0
1539620264.645,28.809,41.504,33.203,23.438,92.285,0
1539620264.649,28.320,41.016,33.691,26.367,27.832,0
1539620264.653,26.367,41.504,35.156,24.902,-35.156,0
1539620264.657,22.949,41.992,33.203,20.020,4.883,0
1539620264.661,21.484,39.551,32.227,24.902,-41.992,0
1539620264.665,23.926,42.480,32.715,30.273,-39.551,0
1539620264.669,22.949,42.969,34.180,27.832,7.812,0
1539620264.673,22.949,38.574,37.109,23.438,10.742,0
1539620264.676,25.879,37.109,35.645,25.879,41.992,0
1539620264.680,25.391,37.598,34.668,28.320,25.879,0
1539620264.684,23.438,37.109,33.203,26.855,7.324,0
1539620264.688,25.879,35.156,32.227,25.879,28.320,0
1539620264.692,27.344,35.645,35.645,27.344,47.363,0
1539620264.696,25.391,36.621,33.203,23.438,64.941,0
1539620264.700,31.250,33.203,31.738,23.926,103.516,0
1539620264.704,31.738,31.250,33.691,29.297,120.605,0
1539620264.708,21.973,33.203,32.227,26.367,83.496,0
1539620264.712,24.902,29.297,31.738,30.762,70.312,0
1539620264.715,31.738,29.297,32.715,30.762,53.223,0
1539620264.719,31.738,35.156,35.645,27.344,36.621,0
1539620264.723,30.762,34.668,37.598,29.297,4.883,0
1539620264.727,27.832,34.668,36.133,32.715,14.160,0
1539620264.731,32.227,39.551,37.598,35.156,53.223,0
1539620264.735,34.180,37.109,38.086,33.203,33.203,0
1539620264.739,32.715,35.156,37.109,33.691,16.113,0
1539620264.743,29.785,38.086,37.598,33.203,-32.227,0
1539620264.747,27.832,37.109,39.062,32.227,-44.434,0
1539620264.751,29.785,37.598,38.574,32.227,50.293,0
1539620264.755,27.832,38.086,37.598,32.227,59.570,0
1539620264.758,27.344,36.621,40.039,34.180,41.504,0
1539620264.762,30.762,36.621,39.062,36.621,61.523,0
1539620264.766,32.227,38.086,34.180,35.156,30.762,0
1539620264.770,35.645,38.574,32.715,36.621,57.129,0
1539620264.774,34.668,38.574,36.621,35.156,84.961,0
1539620264.778,30.273,36.621,35.645,27.344,38.086,0
1539620264.782,29.785,34.668,34.668,27.832,36.621,0
1539620264.786,33.203,38.574,35.645,30.762,52.246,0
1539620264.790,32.715,32.715,34.180,28.320,0.000,0
1539620264.794,25.879,27.832,38.574,26.855,-9.277,0
1539620264.798,23.926,36.621,41.016,20.508,-15.137,0
1539620264.801,23.926,40.527,36.621,26.367,-16.602,0
1539620264.805,23.438,41.016,38.574,31.738,22.949,0
1539620264.809,20.020,37.109,39.551,21.484,58.105,0
1539620264.813,13.672,33.203,34.668,20.020,21.484,0
1539620264.817,13.672,35.156,34.180,23.438,19.531,0
1539620264.821,16.113,36.621,36.621,21.484,9.766,0
1539620264.825,18.555,36.621,35.645,22.461,35.156,0
1539620264.829,20.020,35.645,34.668,21.973,57.129,0
1539620264.833,22.461,34.668,35.645,20.508,-29.297,0
1539620264.837,23.926,34.668,34.668,20.508,3.906,0
1539620264.840,21.973,34.668,33.691,18.555,46.387,0
1539620264.844,21.973,37.598,30.762,18.555,5.859,0
1539620264.848,24.902,40.039,31.738,22.949,43.457,0
1539620264.852,23.438,39.062,33.691,25.391,55.176,0
1539620264.856,21.973,37.598,31.738,24.902,35.156,0
1539620264.860,22.949,37.109,31.250,24.902,59.570,0
1539620264.864,22.949,37.109,35.156,29.297,51.758,1
1539620264.868,20.996,38.574,35.156,29.785,54.688,0
1539620264.872,20.508,38.086,35.645,26.855,3.418,0
1539620264.876,25.391,38.574,38.574,27.832,-21.484,0
1539620264.880,26.855,37.598,35.645,33.691,7.812,0
1539620264.883,22.949,29.297,35.645,30.273,17.090,0
1539620264.887,19.531,30.273,37.109,21.973,47.363,0
1539620264.891,19.043,37.598,34.180,25.879,38.574,0
1539620264.895,20.020,38.574,34.668,28.320,23.926,0
1539620264.899,20.020,39.062,35.645,26.855,61.035,0
1539620264.903,21.484,40.527,34.668,26.855,85.449,0
1539620264.907,21.484,40.039,35.156,26.367,90.820,0
1539620264.911,22.949,37.598,35.156,27.344,75.684,0
1539620264.915,23.438,38.086,36.133,27.344,39.062,0
1539620264.919,21.484,38.086,39.062,29.785,61.523,0
1539620264.923,21.973,35.156,40.039,30.273,73.242,0
1539620264.926,24.414,36.133,39.551,27.344,46.875,0
1539620264.930,23.438,38.086,39.551,28.320,74.219,0
1539620264.934,22.461,40.039,39.551,29.785,77.637,0
1539620264.938,28.320,40.039,36.133,31.738,43.457,0
1539620264.942,32.227,37.598,36.133,33.691,78.125,0
1539620264.946,32.227,38.086,36.621,35.156,58.594,0
1539620264.950,32.227,39.062,34.180,37.109,10.254,0
1539620264.954,33.203,39.551,38.574,39.062,-10.742,0
1539620264.958,28.320,38.086,37.598,39.551,28.320,0
1539620264.962,28.809,35.156,33.203,34.180,19.043,0
1539620264.965,28.809,40.527,37.109,34.180,-14.648,0
1539620264.969,29.785,45.410,40.527,40.527,8.301,0
1539620264.973,36.133,42.969,38.574,39.062,0.977,0
1539620264.977,35.156,42.969,36.133,33.203,14.160,0
1539620264.981,32.715,44.434,35.156,34.668,64.453,0
1539620264.985,35.645,41.016,37.109,41.016,57.129,0
1539620264.989,32.715,39.551,35.156,42.969,63.965,0
1539620264.993,27.344,39.062,35.645,42.480,64.453,0
1539620264.997,28.320,38.574,35.156,40.039,98.145,0
1539620265.001,30.273,37.598,31.738,34.668,84.473,0
1539620265.005,30.273,40.527,32.715,33.203,43.945,0
1539620265.008,29.297,41.016,33.203,36.621,88.867,0
1539620265.012,26.367,37.598,31.738,35.645,67.871,0
1539620265.016,25.879,36.133,33.203,34.180,27.832,0
1539620265.020,27.344,34.668,33.203,34.180,49.805,0
1539620265.024,28.320,36.133,32.227,30.762,57.617,0
1539620265.028,26.367,35.156,30.762,28.809,45.410,0
1539620265.032,28.809,35.645,32.715,31.250,18.555,0
1539620265.036,28.320,36.621,36.621,32.227,-29.297,0
1539620265.040,23.438,41.504,36.621,33.203,-20.996,0
1539620265.044,28.809,33.691,39.062,36.621,18.066,0
1539620265.048,30.273,27.832,38.086,38.086,13.184,0
1539620265.051,27.344,39.062,36.133,36.621,35.645,0
1539620265.055,27.344,42.480,37.598,37.598,50.293,0
1539620265.059,29.297,41.016,38.086,41.992,110.352,0
1539620265.063,26.855,37.109,35.156,35.645,72.754,0
1539620265.067,25.391,34.180,35.156,34.668,-20.020,0
1539620265.071,29.297,36.133,37.598,37.109,30.762,0
1539620265.075,31.738,40.039,39.062,35.645,35.156,0
1539620265.079,35.156,41.016,41.992,36.133,34.180,0
1539620265.083,30.273,40.039,38.086,33.203,49.316,0
1539620265.087,24.902,41.016,38.574,31.250,23.438,0
1539620265.090,28.320,41.504,40.039,35.156,29.297,0
1539620265.094,25.391,37.109,36.133,34.668,22.461,0
1539620265.098,26.855,38.574,34.668,31.250,31.250,0
1539620265.102,30.762,39.062,38.574,35.645,64.941,0
1539620265.106,26.367,34.180,38.086,35.156,48.828,0
1539620265.110,19.531,31.738,36.133,32.715,8.301,0
1539620265.114,21.973,34.180,38.086,35.645,-1.953,0
1539620265.118,30.762,36.133,38.086,38.086,27.344,0
1539620265.122,29.785,35.156,38.086,33.691,48.828,0
1539620265.126,24.414,31.738,39.551,31.738,41.992,0
1539620265.130,22.949,34.180,40.527,38.574,44.434,0
1539620265.133,21.973,37.598,41.016,42.969,26.367,0
1539620265.137,21.484,36.133,41.016,37.109,79.102,0
1539620265.141,21.973,35.156,41.504,32.227,62.012,0
1539620265.145,22.949,34.668,37.598,38.086,-28.809,0
1539620265.149,27.832,36.621,33.691,41.016,9.766,0
1539620265.153,28.320,35.156,39.551,40.527,37.109,0
1539620265.157,22.949,31.250,41.016,34.668,38.086,0
1539620265.161,25.391,31.250,38.086,34.668,-20.996,0
1539620265.165,23.926,32.227,37.598,38.574,-42.480,0
1539620265.169,24.414,32.715,39.551,32.227,34.180,0
1539620265.173,30.273,35.645,37.598,33.691,31.738,0
1539620265.176,29.297,37.598,35.645,38.574,6.348,0
1539620265.180,28.320,38.086,39.551,37.598,19.531,0
1539620265.184,26.367,39.551,42.480,36.133,67.383,0
1539620265.188,24.414,39.551,41.504,36.621,78.125,0
1539620265.192,29.785,40.527,36.621,42.969,87.402,0
1539620265.196,31.738,41.016,33.203,35.645,74.707,0
1539620265.200,28.320,36.621,36.621,29.297,50.781,0
1539620265.204,24.414,37.109,40.039,30.762,50.293,0
1539620265.208,20.508,37.109,38.086,28.809,21.484,0
1539620265.212,19.531,32.715,37.109,28.809,-4.883,0
1539620265.215,21.484,33.691,38.086,22.949,32.715,0
1539620265.219,22.461,32.227,36.133,23.438,33.203,0
1539620265.223,23.438,27.344,33.691,29.297,16.113,0
1539620265.227,22.949,32.715,33.203,30.762,26.855,0
1539620265.231,25.391,36.621,35.156,27.344,35.156,0
1539620265.235,27.344,38.574,35.156,27.832,83.984,0
1539620265.239,26.367,38.574,31.738,33.691,65.430,0
1539620265.243,25.879,37.598,32.227,36.133,44.922,0
1539620265.247,27.344,39.062,35.645,35.156,76.660,0
1539620265.251,30.762,40.527,34.668,34.180,19.531,0
1539620265.255,31.250,40.527,33.691,33.691,20.996,0
1539620265.258,31.250,39.062,34.668,33.691,43.457,0
1539620265.262,30.762,37.598,31.250,34.180,-2.930,0
1539620265.266,29.785,39.062,31.250,33.691,18.066,0
1539620265.270,28.809,41.504,32.715,34.668,65.430,0
1539620265.274,23.926,40.527,30.762,36.133,42.969,0
1539620265.278,24.902,36.621,31.738,36.133,44.434,0
1539620265.282,26.855,36.621,33.691,36.133,53.223,0
1539620265.286,21.973,35.645,33.691,32.227,28.809,0
1539620265.290,23.926,36.133,34.180,32.227,12.695,0
1539620265.294,27.344,38.086,35.156,34.180,20.996,0
1539620265.298,21.484,37.598,35.645,32.715,55.176,0
1539620265.301,24.902,33.203,37.598,30.762,49.805,0
1539620265.305,26.855,31.250,35.645,33.203,8.789,0
1539620265.309,22.461,36.133,34.668,30.762,37.598,0
1539620265.313,24.902,34.180,34.180,28.320,68.848,0
1539620265.317,24.414,28.809,33.203,29.785,11.230,0
1539620265.321,22.461,33.691,33.691,29.785,-2.930,0
1539620265.325,21.973,39.551,34.180,28.809,44.434,0
1539620265.329,20.020,39.551,32.715,28.809,73.242,0
1539620265.333,20.996,36.133,32.227,27.832,26.855,0
1539620265.337,24.902,37.109,34.180,28.809,2.930,0
1539620265.340,26.367,36.133,33.691,32.227,32.227,0
1539620265.344,24.902,38.574,35.156,34.180,38.574,0
1539620265.348,25.879,40.527,34.668,31.250,44.434,0
1539620265.352,28.320,40.039,31.738,33.691,29.785,0
1539620265.356,24.902,41.016,27.832,36.621,31.738,0
1539620265.360,19.531,36.133,31.738,30.273,5.371,0
1539620265.364,23.438,35.645,36.621,33.691,26.855,0
1539620265.368,27.344,37.598,33.691,35.645,67.871,0
1539620265.372,23.926,35.645,35.156,35.156,15.137,0
1539620265.376,20.508,33.203,36.133,37.109,65.918,0
1539620265.380,22.949,33.691,32.715,34.180,104.004,0
1539620265.383,21.973,35.645,35.156,34.668,5.859,0
1539620265.387,23.438,35.156,38.086,34.668,5.371,0
1539620265.391,25.391,30.273,37.598,28.809,3.418,0
1539620265.395,27.832,35.156,36.621,29.297,6.348,0
1539620265.399,29.785,42.480,35.156,30.762,61.035,0
1539620265.403,26.367,42.969,33.691,30.273,56.152,0
1539620265.407,25.879,41.016,34.668,28.809,58.594,0
1539620265.411,30.762,40.039,37.109,29.297,50.293,0
1539620265.415,28.809,39.062,35.156,35.645,82.520,0
1539620265.419,24.902,41.016,32.227,31.738,123.047,0
1539620265.423,24.414,41.016,37.598,31.250,94.727,0
1539620265.426,22.949,38.574,41.016,32.227,49.316,0
1539620265.430,23.926,37.598,37.109,34.180,29.297,0
1539620265.434,25.391,38.574,35.156,35.156,43.945,0
1539620265.438,25.879,38.574,38.086,37.598,-22.949,0
1539620265.442,25.879,34.668,38.086,41.504,-71.777,0
1539620265.446,24.902,36.133,38.086,39.551,26.367,0
1539620265.450,26.855,39.551,37.109,39.551,72.754,0
1539620265.454,34.668,35.156,36.621,41.504,25.879,0
1539620265.458,35.156,36.621,37.598,37.109,17.578,0
1539620265.462,32.227,41.016,36.621,37.109,0.488,0
1539620265.465,35.156,36.621,36.133,40.527,28.320,0
1539620265.469,37.598,36.133,38.574,42.480,93.262,0
1539620265.473,40.527,45.898,40.527,43.457,71.777,0
1539620265.477,40.527,47.852,39.062,41.504,41.504,0
1539620265.481,33.691,46.387,38.574,36.621,34.180,0
1539620265.485,33.691,43.457,41.016,37.109,30.273,0
1539620265.489,33.691,40.039,41.016,39.551,-18.555,0
1539620265.493,29.785,40.527,39.062,36.133,7.812,0
1539620265.497,30.273,39.551,41.992,28.320,58.594,0
1539620265.501,28.320,41.016,41.016,24.902,98.633,0
1539620265.505,25.391,40.527,36.621,26.367,73.730,0
1539620265.508,27.344,41.016,35.156,27.832,-17.578,0
1539620265.512,31.250,44.434,38.086,33.203,10.742,0
1539620265.516,29.785,42.480,41.016,36.621,74.219,0
1539620265.520,32.715,41.992,41.992,34.180,22.949,0
1539620265.524,30.762,42.969,41.992,32.715,16.602,0
1539620265.528,27.832,42.969,39.062,32.715,94.727,0
1539620265.532,29.297,37.109,36.621,28.320,88.867,0
1539620265.536,28.809,33.691,35.645,24.902,47.363,0
1539620265.540,25.879,40.039,35.156,22.461,46.875,0
1539620265.544,29.785,45.410,36.621,27.344,27.344,0
1539620265.548,31.738,46.387,38.574,26.367,6.348,0
1539620265.551,31.250,41.504,36.133,23.438,24.902,0
1539620265.555,36.621,42.969,36.133,27.344,16.602,0
1539620265.559,33.203,46.387,35.156,23.926,-15.625,0
1539620265.563,28.320,41.504,38.086,21.973,21.484,0
1539620265.567,29.785,40.039,42.969,21.484,53.223,0
1539620265.571,25.879,42.969,36.621,21.973,49.316,0
1539620265.575,20.996,41.992,37.598,24.414,79.590,0
1539620265.579,23.926,41.992,41.504,22.461,80.078,0
1539620265.583,26.855,40.527,37.598,24.414,43.945,0
1539620265.587,28.809,36.133,34.668,22.949,44.922,0
1539620265.590,28.809,34.180,36.133,18.555,53.711,0
1539620265.594,23.438,35.645,35.645,20.020,81.055,0
1539620265.598,27.344,36.133,34.180,20.508,53.223,0
1539620265.602,30.273,34.668,35.645,24.414,42.480,0
1539620265.606,31.250,32.227,36.133,29.297,83.496,0
1539620265.610,30.273,30.273,35.156,25.879,95.703,0
1539620265.614,30.762,36.133,38.086,24.902,36.133,0
1539620265.618,31.738,40.039,37.598,23.926,-0.977,0
1539620265.622,25.879,39.551,35.156,21.484,31.250,0
1539620265.626,26.855,39.062,38.086,24.902,42.480,0
1539620265.630,28.320,37.598,37.598,24.414,-0.488,0
1539620265.633,25.879,35.645,36.621,18.555,-14.160,0
1539620265.637,28.320,36.133,37.598,22.461,15.625,0
1539620265.641,28.320,36.621,35.156,22.461,22.949,0
1539620265.645,24.414,36.133,34.668,22.949,25.391,0
1539620265.649,25.391,36.621,36.621,29.785,62.500,0
1539620265.653,29.297,37.598,38.086,28.809,79.102,0
1539620265.657,26.367,38.086,35.156,23.926,20.020,0
1539620265.661,24.414,35.645,33.203,20.508,35.645,0
1539620265.665,26.855,34.180,33.203,20.996,82.031,0
1539620265.669,21.484,34.180,33.203,25.391,85.938,0
1539620265.673,23.438,36.133,35.156,23.926,67.871,0
1539620265.676,25.391,38.574,35.156,19.043,53.711,0
1539620265.680,24.902,38.086,33.691,18.066,50.781,0
1539620265.684,25.879,33.691,31.250,21.484,20.508,0
1539620265.688,27.832,32.715,31.250,25.391,-1.465,0
1539620265.692,27.344,41.016,31.738,24.902,25.879,0
1539620265.696,27.344,43.945,35.156,21.973,54.199,0
1539620265.700,28.809,40.039,35.645,24.414,43.457,0
1539620265.704,31.250,39.551,33.691,28.320,-2.441,0
1539620265.708,29.785,39.062,33.691,27.832,23.438,0
1539620265.712,28.809,37.598,34.180,30.762,38.574,0
1539620265.715,31.738,38.574,34.668,31.250,-0.488,0
1539620265.719,32.715,38.574,35.645,33.691,32.227,0
1539620265.723,30.762,36.621,34.180,29.785,14.648,0
1539620265.727,26.367,37.598,33.203,25.879,0.000,0
1539620265.731,25.391,39.062,36.133,29.297,9.766,0
1539620265.735,26.855,36.133,39.062,29.785,-14.648,0
1539620265.739,25.391,38.086,36.621,25.391,5.371,0
1539620265.743,23.438,38.086,33.691,25.391,35.156,0
1539620265.747,24.414,34.668,34.180,28.320,38.574,0
1539620265.751,23.926,37.598,33.203,23.438,81.543,0
1539620265.755,23.438,31.250,33.203,24.902,85.449,0
1539620265.758,24.414,27.832,34.180,25.879,9.277,0
1539620265.762,23.438,34.668,34.668,22.949,-11.230,0
1539620265.766,21.973,36.133,33.691,22.461,20.508,0
1539620265.770,20.508,37.109,31.250,19.531,25.391,0
1539620265.774,20.996,40.039,29.785,23.438,29.785,0
1539620265.778,23.926,38.574,32.715,27.344,32.227,0
1539620265.782,24.414,38.086,37.109,28.809,33.203,0
1539620265.786,23.926,38.574,35.156,25.879,-14.160,0
1539620265.790,24.414,36.621,36.621,23.438,-25.879,0
1539620265.794,22.949,35.645,38.574,26.367,45.410,0
1539620265.798,22.949,34.180,36.621,26.855,79.590,0
1539620265.801,22.949,38.086,35.645,23.438,46.387,0
1539620265.805,22.461,41.016,31.738,20.020,57.129,0
1539620265.809,20.508,39.551,29.297,23.438,59.082,0
1539620265.813,21.484,38.086,28.809,24.414,41.504,0
1539620265.817,22.949,29.785,31.738,25.391,56.152,0
1539620265.821,22.949,31.250,32.227,26.855,41.016,0
1539620265.825,23.438,35.645,32.227,26.855,-7.324,0
1539620265.829,21.484,32.715,34.180,20.996,9.766,0
1539620265.833,21.484,34.180,30.762,18.066,10.254,0
1539620265.837,24.414,32.715,30.273,24.902,-18.066,0
1539620265.840,23.926,27.344,32.227,23.926,28.809,0
1539620265.844,23.926,29.785,30.273,23.926,32.227,0
1539620265.848,24.414,29.297,30.273,26.367,66.895,0
1539620265.852,22.949,28.320,33.691,23.926,87.402,0
1539620265.856,25.391,34.180,32.227,24.414,-3.906,0
1539620265.860,29.785,34.668,33.203,28.809,2.930,0
1539620265.864,26.367,33.203,36.133,29.785,16.113,0
1539620265.868,24.414,32.715,36.133,32.227,-6.836,0
1539620265.872,22.949,30.762,36.133,35.156,50.781,0
1539620265.876,22.461,31.250,35.645,28.809,66.895,0
1539620265.880,26.367,25.879,35.645,25.879,34.668,0
1539620265.883,27.344,26.855,36.133,30.762,52.734,0
1539620265.887,24.414,32.715,37.598,30.273,78.613,0
1539620265.891,22.949,34.668,37.109,28.320,84.473,0
1539620265.895,24.414,34.180,35.156,28.320,38.574,0
1539620265.899,25.879,32.715,33.203,32.715,-6.348,0
1539620265.903,31.250,34.668,33.203,31.250,-37.109,0
1539620265.907,32.715,36.133,34.180,32.227,17.578,0
1539620265.911,31.250,36.133,35.645,33.203,72.266,0
1539620265.915,28.809,33.691,36.621,31.250,48.340,0
1539620265.919,30.762,32.715,34.668,35.645,16.113,0
1539620265.923,32.715,37.109,34.180,32.715,25.879,0
1539620265.926,25.391,39.551,34.668,25.879,61.523,0
1539620265.930,13.184,37.598,36.133,19.043,72.266,0
1539620265.934,11.230,41.016,39.062,19.043,53.223,0
1539620265.938,14.648,42.480,40.039,22.461,40.527,0
1539620265.942,12.695,39.062,39.062,27.344,88.867,0
1539620265.946,13.672,40.039,37.109,28.320,78.125,0
1539620265.950,16.113,36.621,36.621,20.020,0.488,0
1539620265.954,17.578,36.621,39.551,23.438,10.254,0
1539620265.958,19.043,37.598,40.039,28.809,54.199,0
1539620265.962,18.555,39.062,35.156,24.414,1.953,0
1539620265.965,21.973,37.109,35.645,27.832,-29.297,0
1539620265.969,24.902,34.180,34.668,30.273,29.785,0
1539620265.973,22.949,42.480,31.738,30.273,83.496,0
1539620265.977,26.855,45.898,34.668,38.574,60.059,0
1539620265.981,27.832,45.410,33.203,34.668,9.766,0
1539620265.985,28.320,43.945,33.203,32.227,-18.066,0
1539620265.989,31.250,43.457,36.621,36.621,31.250,0
1539620265.993,26.855,43.457,34.180,33.691,-0.977,0
1539620265.997,25.879,42.480,33.691,33.203,-2.930,0
1539620266.001,31.250,42.480,34.668,31.738,9.766,0
1539620266.005,31.738,43.457,33.203,34.180,2.441,0
1539620266.008,27.344,41.992,35.645,30.273,50.293,0
1539620266.012,27.344,40.039,36.621,30.273,49.805,0
1539620266.016,31.738,42.969,35.156,41.016,55.664,0
1539620266.020,28.320,40.039,35.156,34.668,52.246,0
1539620266.024,24.902,36.621,35.156,28.320,36.621,0
1539620266.028,24.414,39.551,36.133,28.320,30.762,0
1539620266.032,23.926,40.039,38.574,28.320,65.430,0
1539620266.036,25.391,31.250,35.156,34.668,113.770,0
1539620266.040,26.855,33.691,33.691,34.180,75.195,0
1539620266.044,24.902,40.039,36.621,31.250,47.852,0
1539620266.048,24.902,37.109,37.109,34.668,12.695,0
1539620266.051,29.785,37.598,39.062,36.133,0.977,0
1539620266.055,32.227,40.039,38.086,34.668,18.066,0
1539620266.059,26.855,38.574,37.598,33.691,-3.418,0
1539620266.063,23.438,38.086,38.086,32.715,4.395,0
1539620266.067,25.391,36.621,37.109,32.227,27.832,0
1539620266.071,23.438,34.668,37.109,29.785,48.828,0
1539620266.075,19.531,32.715,34.668,25.391,51.270,0
1539620266.079,20.996,30.273,32.715,30.273,-3.906,0
1539620266.083,25.879,29.785,38.086,33.691,-46.875,0
1539620266.087,30.762,32.715,41.504,33.203,24.902,0
1539620266.090,29.785,33.691,39.062,37.109,45.898,0
1539620266.094,23.926,33.691,37.598,39.551,45.898,0
1539620266.098,22.461,33.691,36.621,35.645,59.082,0
1539620266.102,24.414,31.738,35.645,31.250,48.340,0
1539620266.106,24.902,32.227,38.574,33.203,34.180,0
1539620266.110,24.902,26.855,38.086,32.715,46.875,0
1539620266.114,23.438,20.996,36.621,33.203,59.570,0
1539620266.118,24.414,32.715,34.668,32.227,53.223,0
1539620266.122,31.250,40.039,32.227,35.156,125.977,0
1539620266.126,27.344,37.598,35.156,34.668,114.258,0
1539620266.130,23.438,36.621,33.691,32.227,50.781,0
1539620266.133,27.832,41.504,31.738,33.203,73.730,0
1539620266.137,30.273,41.504,34.180,38.574,69.824,0
1539620266.141,26.855,36.133,33.203,37.598,81.055,0
1539620266.145,25.391,34.668,31.250,30.273,121.582,0
1539620266.149,28.320,36.133,34.180,34.668,72.266,0
1539620266.153,28.320,36.133,35.156,35.156,67.383,0
1539620266.157,25.391,35.156,31.738,26.855,24.902,0
1539620266.161,28.809,36.621,29.785,27.832,60.547,0
1539620266.165,28.320,38.086,33.691,29.297,75.684,1
