timestamps,TP9,AF7,AF8,TP10,Right AUX,Marker0
1539545139.092,36.621,430.664,-177.734,46.387,42.969,0
1539545139.096,40.039,219.727,-382.812,42.480,-19.043,0
1539545139.100,34.180,238.770,-360.352,46.387,0.977,0
1539545139.104,28.809,450.195,-123.535,38.574,81.055,0
1539545139.107,34.668,367.188,-180.664,37.598,45.410,0
1539545139.111,37.109,97.168,-449.707,43.457,-32.227,0
1539545139.115,35.156,59.082,-470.703,41.504,16.602,0
1539545139.119,34.180,195.312,-326.172,48.828,70.801,0
1539545139.123,34.668,275.391,-237.305,56.641,58.105,0
1539545139.127,31.250,135.254,-369.141,51.270,-0.977,0
1539545139.131,23.438,210.449,-315.430,51.758,-0.488,0
1539545139.135,29.785,415.039,-94.238,62.012,64.941,0
1539545139.139,39.551,304.688,-160.156,56.152,62.988,0
1539545139.143,43.457,-147.461,-602.539,45.410,-29.297,0
1539545139.146,33.203,-11.719,-531.250,35.156,-30.273,0
1539545139.150,27.832,372.559,-153.320,35.156,40.527,0
1539545139.154,31.250,306.152,-154.785,47.852,75.684,0
1539545139.158,38.574,70.312,-363.770,48.340,28.320,0
1539545139.162,34.668,19.043,-437.988,52.246,-20.996,0
1539545139.166,23.438,289.551,-167.969,47.363,33.691,0
1539545139.170,24.414,248.047,-144.043,47.852,76.172,0
1539545139.174,29.785,-126.953,-476.074,55.176,32.227,0
1539545139.178,31.738,-34.668,-445.801,39.062,-26.367,0
1539545139.182,28.320,282.227,-138.672,20.996,17.090,0
1539545139.186,23.438,285.156,-90.820,27.344,74.219,0
1539545139.189,26.855,213.379,-160.156,32.227,52.734,0
1539545139.193,26.367,214.355,-179.688,31.738,0.488,0
1539545139.197,13.672,230.957,-155.273,25.391,15.625,0
1539545139.201,10.742,295.410,-48.828,35.645,96.680,0
1539545139.205,24.414,195.312,-113.281,58.105,120.605,0
1539545139.209,22.461,94.238,-239.258,41.016,50.293,0
1539545139.213,16.113,227.051,-126.465,27.832,25.879,0
1539545139.217,23.926,26.367,-270.020,41.504,57.617,0
1539545139.221,21.973,31.738,-280.762,31.738,71.289,0
1539545139.225,19.531,331.543,-32.715,23.438,45.410,0
1539545139.229,29.297,193.848,-166.504,37.109,-4.883,0
1539545139.232,27.344,119.629,-241.211,29.297,37.109,0
1539545139.236,17.578,317.871,-79.102,30.762,93.262,0
1539545139.240,21.484,413.086,-5.859,37.109,76.172,0
1539545139.244,27.832,191.895,-239.258,27.344,6.836,0
1539545139.248,23.438,182.129,-261.230,24.902,18.555,0
1539545139.252,26.367,209.961,-216.309,32.715,69.824,0
1539545139.256,31.250,131.836,-318.359,43.945,51.270,0
1539545139.260,30.273,33.203,-441.406,55.176,0.977,0
1539545139.264,27.832,-107.422,-593.262,52.734,-20.996,0
1539545139.268,24.902,235.840,-299.316,45.898,38.574,0
1539545139.271,15.625,457.031,-65.430,44.434,83.984,0
1539545139.275,14.160,213.867,-303.711,26.367,9.766,0
1539545139.279,16.113,107.422,-449.219,17.578,-50.781,0
1539545139.283,14.160,401.855,-148.926,23.926,49.805,0
1539545139.287,17.090,521.973,21.484,31.738,128.906,0
1539545139.291,31.250,232.910,-256.836,42.969,40.039,0
1539545139.295,37.109,131.348,-398.926,54.688,-31.738,0
1539545139.299,17.578,181.641,-340.820,51.270,16.602,0
1539545139.303,6.836,218.750,-294.922,39.551,59.570,0
1539545139.307,11.230,40.039,-464.844,33.203,33.691,0
1539545139.311,16.602,-34.668,-590.820,32.227,-28.809,0
1539545139.314,16.602,384.277,-219.727,30.762,7.324,0
1539545139.318,15.137,377.441,-166.504,18.555,45.898,0
1539545139.322,16.113,240.234,-273.926,25.879,27.832,0
1539545139.326,17.578,311.523,-227.539,42.480,-4.883,0
1539545139.330,10.742,369.141,-168.457,33.203,-10.254,0
1539545139.334,8.789,328.613,-165.527,39.551,26.855,0
1539545139.338,11.719,369.629,-92.285,38.574,66.406,0
1539545139.342,19.043,393.555,-62.012,41.016,23.926,0
1539545139.346,28.320,188.477,-259.277,51.270,-34.180,0
1539545139.350,32.227,19.043,-406.250,42.480,-12.695,0
1539545139.354,30.273,25.879,-402.832,45.898,25.879,0
1539545139.357,25.879,347.168,-134.277,50.781,41.504,0
1539545139.361,32.715,449.707,-39.551,50.781,7.812,0
1539545139.365,32.715,286.133,-187.012,52.734,-2.930,0
1539545139.369,25.879,312.012,-167.969,56.152,30.762,0
1539545139.373,24.414,410.156,-85.449,48.828,23.438,0
1539545139.377,32.715,298.828,-215.820,43.457,-41.992,0
1539545139.381,35.645,264.648,-257.812,44.434,-19.043,0
1539545139.385,32.715,400.879,-122.559,43.457,60.059,0
1539545139.389,27.344,447.754,-83.984,43.457,59.570,0
1539545139.393,26.855,197.266,-351.562,54.199,-14.648,0
1539545139.396,33.691,-133.301,-686.523,56.152,-48.828,0
1539545139.400,28.320,91.797,-499.023,42.480,14.648,0
1539545139.404,19.531,449.707,-160.645,36.133,65.918,0
1539545139.408,26.367,250.488,-333.496,49.316,13.672,0
1539545139.412,33.203,184.082,-431.152,61.523,-31.250,0
1539545139.416,31.738,380.371,-256.348,51.758,7.324,0
1539545139.420,27.832,538.574,-79.102,51.758,73.242,0
1539545139.424,28.809,393.555,-198.242,54.688,53.223,0
1539545139.428,34.668,199.219,-414.551,60.547,-27.344,0
1539545139.432,32.227,325.195,-313.965,58.105,-11.230,0
1539545139.436,27.344,431.152,-186.523,47.363,39.062,0
1539545139.439,30.273,158.691,-410.156,65.918,29.785,0
1539545139.443,30.273,-63.965,-648.926,65.430,-11.719,0
1539545139.447,25.879,304.199,-335.449,33.691,19.531,0
1539545139.451,31.738,494.629,-114.746,30.273,60.059,0
1539545139.455,34.180,335.938,-237.793,42.480,53.223,0
1539545139.459,33.203,265.625,-323.730,43.945,8.301,0
1539545139.463,29.297,228.027,-377.930,50.293,-30.762,0
1539545139.467,29.297,252.441,-337.891,50.781,22.949,0
1539545139.471,30.273,367.188,-217.773,36.133,73.242,0
1539545139.475,23.438,319.336,-279.785,41.016,23.438,0
1539545139.479,22.461,326.660,-293.945,44.922,-11.719,0
1539545139.482,30.273,409.180,-197.266,41.504,32.227,0
1539545139.486,35.645,307.129,-260.742,57.617,68.848,0
1539545139.490,36.133,183.594,-383.301,59.570,51.270,0
1539545139.494,27.832,306.152,-299.316,45.898,17.578,0
1539545139.498,25.879,425.293,-154.297,45.898,36.621,0
1539545139.502,27.832,88.379,-428.223,32.227,35.156,0
1539545139.506,21.484,93.750,-458.984,21.973,23.926,0
1539545139.510,19.043,396.973,-199.219,41.504,0.977,0
1539545139.514,25.879,261.719,-306.641,48.828,-25.391,0
1539545139.518,29.297,342.773,-206.055,48.340,55.176,0
1539545139.521,26.855,406.738,-128.906,58.594,81.055,0
1539545139.525,28.320,259.766,-286.621,54.688,11.719,0
1539545139.529,29.297,282.715,-284.668,52.246,4.395,0
1539545139.533,29.785,194.824,-354.004,49.316,17.090,0
1539545139.537,26.855,142.578,-415.527,43.457,24.414,0
1539545139.541,21.973,357.422,-232.910,39.551,41.504,0
1539545139.545,33.691,187.012,-388.184,51.758,-14.160,0
1539545139.549,29.297,-40.039,-619.141,58.105,-28.320,0
1539545139.553,13.184,417.969,-198.242,42.969,77.637,0
1539545139.557,16.602,531.738,-58.105,53.223,80.566,0
1539545139.561,20.996,237.793,-361.328,57.617,-17.090,0
1539545139.564,20.020,296.875,-323.730,36.621,8.789,0
1539545139.568,18.555,504.883,-96.191,33.203,84.473,0
1539545139.572,20.508,417.969,-166.016,33.691,62.988,0
1539545139.576,18.555,246.582,-352.051,28.809,4.883,0
1539545139.580,17.578,125.977,-490.234,36.133,-14.648,0
1539545139.584,19.531,172.363,-438.965,46.875,43.457,0
1539545139.588,20.996,226.074,-381.836,34.180,69.336,0
1539545139.592,21.484,-102.539,-710.449,27.832,-20.020,0
1539545139.596,13.184,-35.156,-691.895,35.645,-43.945,0
1539545139.600,8.301,478.516,-195.801,38.574,54.199,0
1539545139.604,12.207,469.727,-133.301,42.480,96.680,0
1539545139.607,19.043,272.461,-312.500,52.246,41.016,0
1539545139.611,22.461,249.512,-385.254,46.875,-37.598,0
1539545139.615,22.949,385.742,-247.070,34.180,9.766,0
1539545139.619,27.832,375.488,-216.309,31.738,75.684,0
1539545139.623,25.391,307.129,-278.809,25.391,58.594,0
1539545139.627,21.484,178.711,-418.945,33.691,14.648,0
1539545139.631,14.160,200.684,-423.340,33.203,11.719,0
1539545139.635,20.508,256.348,-341.309,28.320,65.430,0
1539545139.639,28.320,71.777,-499.023,40.527,70.312,0
1539545139.643,20.996,271.484,-356.934,46.875,28.320,0
1539545139.646,27.344,379.883,-251.953,52.734,-2.930,0
1539545139.650,25.879,331.055,-257.812,64.941,43.457,0
1539545139.654,23.926,441.895,-119.629,53.711,116.699,0
1539545139.658,29.297,458.008,-102.051,26.855,70.312,0
1539545139.662,29.785,299.805,-265.625,34.180,-8.789,0
1539545139.666,28.809,265.625,-290.039,42.480,18.066,0
1539545139.670,27.344,375.488,-171.387,41.992,76.660,0
1539545139.674,34.180,249.512,-286.133,44.434,55.664,1
1539545139.678,29.297,113.770,-450.684,34.180,-16.113,0
1539545139.682,19.531,-15.625,-576.660,32.227,-23.438,0
1539545139.686,18.555,118.164,-447.754,24.414,47.363,0
1539545139.689,20.996,497.070,-89.355,30.762,77.148,0
1539545139.693,24.902,271.484,-296.875,41.016,-5.371,0
1539545139.697,22.461,178.711,-396.973,34.668,-1.465,0
1539545139.701,19.043,419.922,-166.504,33.691,67.871,0
1539545139.705,17.090,509.277,-61.035,40.039,85.938,0
1539545139.709,24.902,302.734,-253.906,50.781,31.250,0
1539545139.713,24.414,212.891,-360.352,39.551,0.488,0
1539545139.717,16.602,397.949,-167.969,31.738,50.293,0
1539545139.721,17.090,352.539,-179.199,38.574,78.125,0
1539545139.725,26.855,67.871,-452.637,45.898,26.855,0
1539545139.729,28.320,-100.098,-655.273,46.875,-28.320,0
1539545139.732,18.555,299.805,-298.340,42.969,39.062,0
1539545139.736,20.020,542.969,-28.320,44.922,89.844,0
1539545139.740,24.902,344.727,-202.148,42.969,55.664,0
1539545139.744,29.785,254.395,-314.453,30.762,15.625,0
1539545139.748,33.691,422.363,-165.039,29.297,33.203,0
1539545139.752,31.250,395.508,-156.250,37.109,77.637,0
1539545139.756,28.320,205.078,-342.285,36.133,52.734,0
1539545139.760,23.438,240.234,-354.492,35.156,-3.418,0
1539545139.764,26.367,337.402,-263.672,34.180,-6.836,0
1539545139.768,27.344,308.594,-256.836,36.133,55.664,0
1539545139.771,26.855,10.254,-521.484,42.969,59.082,0
1539545139.775,31.250,15.137,-563.965,34.668,7.324,0
1539545139.779,23.926,388.672,-242.188,30.273,14.648,0
1539545139.783,26.367,442.383,-133.301,32.227,66.895,0
1539545139.787,35.645,362.305,-171.387,40.039,90.332,0
1539545139.791,30.273,382.812,-169.922,55.664,54.688,0
1539545139.795,23.926,367.676,-195.801,57.129,8.301,0
1539545139.799,30.762,266.113,-275.879,43.457,2.441,0
1539545139.803,32.227,227.051,-292.480,45.898,55.176,0
1539545139.807,21.484,375.977,-145.508,38.086,83.496,0
1539545139.811,22.461,299.316,-235.352,25.391,9.766,0
1539545139.814,29.297,-22.461,-543.457,27.344,-26.855,0
1539545139.818,28.320,17.090,-511.230,33.203,33.203,0
1539545139.822,24.414,374.512,-186.035,33.691,79.102,0
1539545139.826,21.484,362.793,-200.684,35.645,12.695,0
1539545139.830,28.809,89.355,-463.867,66.406,-39.551,0
1539545139.834,33.203,97.168,-452.637,83.496,4.395,0
1539545139.838,33.203,302.734,-262.695,42.480,29.297,0
1539545139.842,28.809,269.043,-293.945,27.832,1.953,0
1539545139.846,24.414,150.391,-425.293,35.645,-21.973,0
1539545139.850,28.320,291.016,-285.156,39.062,52.734,0
1539545139.854,31.250,437.500,-114.258,54.688,104.004,0
1539545139.857,35.645,351.074,-188.965,62.500,62.012,0
1539545139.861,36.621,145.996,-393.555,54.688,17.090,0
1539545139.865,25.879,77.637,-465.820,47.363,28.809,0
1539545139.869,14.160,186.035,-363.281,41.992,56.641,0
1539545139.873,17.578,266.113,-286.133,29.297,41.504,0
1539545139.877,29.297,-84.473,-619.629,41.992,-35.645,0
1539545139.881,26.855,-39.062,-614.258,42.480,-27.344,0
1539545139.885,22.949,405.762,-191.406,18.555,54.199,0
1539545139.889,24.414,296.875,-254.883,20.020,50.293,0
1539545139.893,31.250,170.410,-387.207,34.180,6.348,0
1539545139.896,26.367,284.180,-309.570,39.551,-9.277,0
1539545139.900,22.461,442.383,-128.906,39.062,59.082,0
1539545139.904,32.227,382.324,-144.531,31.738,85.449,0
1539545139.908,29.785,146.973,-375.488,21.973,31.250,0
1539545139.912,30.273,74.219,-482.910,33.203,-5.371,0
1539545139.916,26.367,338.867,-240.723,32.227,35.645,0
1539545139.920,26.367,300.293,-226.562,38.574,73.242,0
1539545139.924,34.180,-60.059,-575.684,40.527,-0.488,0
1539545139.928,25.391,28.809,-565.918,29.297,-52.734,0
1539545139.932,22.949,300.293,-309.570,19.043,-1.465,0
1539545139.936,26.367,373.535,-203.125,16.602,55.664,0
1539545139.939,46.387,376.465,-187.500,43.457,68.359,0
1539545139.943,65.918,377.930,-192.871,71.289,19.531,0
1539545139.947,41.504,291.992,-272.949,48.828,-18.066,0
1539545139.951,7.812,293.945,-237.305,4.395,39.062,0
1539545139.955,-7.812,218.750,-274.414,-9.277,66.406,0
1539545139.959,-16.113,111.816,-387.207,-16.602,19.531,0
1539545139.963,-18.555,227.539,-297.363,-21.484,3.906,0
1539545139.967,-10.742,88.867,-399.414,-20.508,37.598,0
1539545139.971,-20.996,117.188,-392.090,-26.855,67.383,0
1539545139.975,-16.113,418.945,-134.277,-28.809,53.223,0
1539545139.979,8.301,250.000,-289.551,-29.297,-5.371,0
1539545139.982,10.742,89.844,-434.082,-22.461,9.277,0
1539545139.986,6.836,271.484,-258.301,-8.301,91.309,0
1539545139.990,3.906,448.242,-87.891,5.859,104.004,0
1539545139.994,1.953,217.773,-312.500,16.113,12.695,0
1539545139.998,6.348,187.012,-346.191,3.906,18.066,0
1539545140.002,5.859,251.465,-262.207,-6.348,80.078,0
1539545140.006,-3.418,207.520,-304.199,4.883,84.473,0
1539545140.010,3.906,-5.859,-539.551,18.066,2.930,0
1539545140.014,10.254,-184.082,-760.254,26.855,-60.059,0
1539545140.018,-0.977,256.836,-365.723,25.391,26.367,0
1539545140.021,-0.488,530.273,-56.152,20.996,100.586,0
1539545140.025,17.578,322.266,-233.398,28.320,43.945,0
1539545140.029,22.949,211.426,-364.258,17.090,-13.184,0
1539545140.033,15.137,411.621,-159.180,9.277,51.758,0
1539545140.037,15.625,454.590,-78.613,22.461,92.285,0
1539545140.041,20.508,281.250,-242.188,14.648,58.594,0
1539545140.045,15.625,212.891,-331.055,10.742,8.301,0
1539545140.049,18.066,181.641,-357.910,23.438,3.906,0
1539545140.053,18.555,179.688,-345.703,26.367,57.129,0
1539545140.057,22.949,-14.648,-521.484,61.035,45.898,0
1539545140.061,28.320,-52.734,-608.887,73.730,-16.113,0
1539545140.064,23.438,321.289,-288.574,40.527,0.000,0
1539545140.068,24.902,372.559,-182.129,35.156,66.406,0
1539545140.072,28.809,247.559,-276.367,36.621,62.988,0
1539545140.076,27.832,273.926,-281.250,33.203,8.301,0
1539545140.080,20.508,332.520,-216.309,36.621,1.465,0
1539545140.084,19.043,291.504,-199.219,40.039,47.852,0
1539545140.088,25.391,269.531,-187.012,31.250,69.824,0
1539545140.092,21.484,257.324,-195.312,31.250,19.043,0
1539545140.096,20.996,102.539,-343.750,34.668,-33.203,0
1539545140.100,18.066,18.555,-393.066,33.691,16.602,0
1539545140.104,16.113,1.465,-393.066,29.297,70.312,0
1539545140.107,19.531,216.309,-227.051,20.020,40.527,0
1539545140.111,22.461,262.695,-203.125,15.625,-30.273,0
1539545140.115,28.320,211.914,-236.328,27.344,5.371,0
1539545140.119,24.902,290.039,-142.578,31.250,64.453,0
1539545140.123,25.391,409.668,-16.113,24.902,72.754,0
1539545140.127,30.762,313.477,-98.633,36.133,20.996,0
1539545140.131,22.461,235.352,-162.109,36.133,17.578,0
1539545140.135,17.578,348.633,-25.391,23.438,81.055,0
1539545140.139,20.020,399.902,52.246,19.531,85.449,0
1539545140.143,22.461,224.121,-105.469,28.320,46.387,0
1539545140.146,25.879,-157.227,-488.770,46.875,-18.555,0
1539545140.150,19.043,-20.020,-393.066,43.457,12.207,0
1539545140.154,13.672,437.500,38.086,15.137,88.379,0
1539545140.158,24.414,237.305,-136.230,34.668,39.551,0
1539545140.162,31.738,50.293,-360.352,39.551,-34.668,0
1539545140.166,31.250,320.801,-125.977,37.109,17.090,0
1539545140.170,35.156,500.488,77.148,49.805,90.820,0
1539545140.174,36.133,330.566,-73.730,40.527,59.082,0
1539545140.178,31.250,172.363,-259.766,42.480,-2.930,0
1539545140.182,29.785,352.051,-104.492,32.715,31.738,0
1539545140.186,31.250,460.449,17.578,23.438,78.613,0
1539545140.189,43.457,172.852,-239.258,39.551,58.105,0
1539545140.193,44.922,-137.695,-574.707,45.898,-2.930,0
1539545140.197,23.438,176.270,-332.031,33.691,12.207,0
1539545140.201,24.902,453.613,-29.297,42.969,76.660,0
1539545140.205,35.156,322.754,-107.910,46.387,86.426,0
1539545140.209,32.227,212.891,-233.398,38.086,22.461,0
1539545140.213,28.809,176.758,-284.668,47.363,-19.043,0
1539545140.217,29.297,209.961,-226.562,59.082,37.109,0
1539545140.221,30.273,255.859,-175.293,48.828,53.711,0
1539545140.225,33.691,150.391,-291.016,32.227,10.742,0
1539545140.229,34.180,193.848,-266.602,35.156,-3.906,0
1539545140.232,30.762,281.738,-169.434,36.621,21.484,0
1539545140.236,31.738,164.062,-250.977,41.992,55.664,0
1539545140.240,30.273,45.410,-373.047,49.805,40.527,0
1539545140.244,33.691,126.465,-336.914,44.434,-12.695,0
1539545140.248,40.527,261.230,-194.336,52.734,7.324,0
1539545140.252,42.969,25.391,-369.629,56.152,49.805,0
1539545140.256,35.645,61.035,-358.398,45.410,61.523,0
1539545140.260,27.344,290.039,-179.688,45.410,13.184,0
1539545140.264,39.062,172.852,-273.438,54.199,-3.906,0
1539545140.268,39.551,226.074,-195.801,43.457,61.523,0
1539545140.271,30.273,242.676,-175.293,34.668,64.941,0
1539545140.275,36.621,154.785,-270.996,45.898,27.344,0
1539545140.279,45.898,104.980,-335.938,62.012,-12.695,0
1539545140.283,39.551,33.203,-395.996,74.219,5.371,0
1539545140.287,25.879,104.980,-319.824,65.430,67.383,0
1539545140.291,20.996,197.754,-252.930,40.039,47.363,0
1539545140.295,24.902,13.184,-447.754,35.156,-27.344,0
1539545140.299,28.809,-123.535,-586.426,61.035,-12.695,0
1539545140.303,20.508,250.000,-257.324,43.945,58.594,0
1539545140.307,24.414,375.977,-126.465,36.621,59.570,0
1539545140.311,24.902,189.453,-309.570,54.688,16.602,0
1539545140.314,23.926,194.824,-314.453,57.129,20.508,0
1539545140.318,27.832,324.219,-182.617,47.363,56.152,0
1539545140.322,29.297,334.961,-156.738,37.598,74.707,0
1539545140.326,41.016,123.535,-371.582,43.945,1.465,0
1539545140.330,39.551,14.648,-494.629,62.988,-13.672,0
1539545140.334,41.992,111.328,-390.625,83.008,54.688,0
1539545140.338,41.992,116.211,-379.883,69.336,65.430,0
1539545140.342,32.715,-154.297,-646.484,55.176,9.277,0
1539545140.346,28.809,-101.074,-645.508,48.828,-24.902,0
1539545140.350,21.973,293.457,-283.203,26.367,17.090,0
1539545140.354,23.926,272.461,-257.812,35.156,52.246,0
1539545140.357,32.715,164.062,-354.980,57.129,38.574,0
1539545140.361,26.855,197.754,-361.328,46.875,-10.254,0
1539545140.365,21.484,306.152,-247.070,38.086,20.508,0
1539545140.369,32.227,271.973,-235.352,61.523,69.824,0
1539545140.373,33.691,238.281,-257.324,63.477,72.266,0
1539545140.377,30.273,99.121,-410.156,48.340,5.371,0
1539545140.381,27.344,75.684,-450.195,30.273,1.953,0
1539545140.385,27.832,94.238,-405.762,44.922,50.781,0
1539545140.389,27.832,-63.477,-552.734,104.492,45.410,0
1539545140.393,27.832,176.758,-375.488,82.031,29.785,0
1539545140.396,29.785,312.988,-249.512,44.922,12.695,0
1539545140.400,21.484,227.539,-305.664,28.809,41.992,0
1539545140.404,20.020,249.023,-275.879,27.344,74.707,0
1539545140.408,16.602,305.176,-224.609,27.832,49.316,0
1539545140.412,19.043,200.195,-330.078,31.250,-11.719,0
1539545140.416,23.438,175.781,-337.402,37.598,19.043,0
1539545140.420,14.160,283.203,-206.543,36.621,78.125,0
1539545140.424,15.137,176.758,-282.227,40.527,64.453,0
1539545140.428,23.438,-18.555,-486.328,45.410,0.000,0
1539545140.432,21.973,-146.973,-609.863,46.875,-8.789,0
1539545140.436,18.066,-31.250,-500.488,49.805,54.688,0
1539545140.439,13.672,362.305,-138.184,39.062,91.797,0
1539545140.443,18.066,248.535,-229.492,43.457,18.066,0
1539545140.447,16.113,60.547,-417.480,52.246,-20.020,0
1539545140.451,6.348,308.105,-182.129,47.363,55.664,0
1539545140.455,10.742,423.828,-41.016,53.711,84.961,0
1539545140.459,21.973,127.441,-333.496,51.270,-9.766,0
1539545140.463,20.996,57.617,-433.105,28.320,-32.227,0
1539545140.467,9.277,282.715,-209.473,20.996,34.180,0
1539545140.471,8.789,230.469,-235.840,33.691,60.059,0
1539545140.475,17.090,-55.664,-514.648,41.992,12.207,0
1539545140.479,19.043,-230.957,-728.027,41.016,-42.480,0
1539545140.482,13.184,162.598,-384.766,35.156,24.414,0
1539545140.486,17.578,413.574,-111.328,37.598,80.566,0
1539545140.490,24.902,248.047,-243.652,63.477,57.129,0
1539545140.494,18.555,90.332,-418.945,52.246,-18.066,0
1539545140.498,10.742,212.891,-309.082,36.133,-11.719,0
1539545140.502,18.066,235.840,-228.516,48.828,58.594,0
1539545140.506,30.273,97.656,-339.844,49.316,57.129,0
1539545140.510,28.320,104.004,-378.418,50.293,-4.395,0
1539545140.514,20.508,156.250,-339.844,44.922,-23.926,0
1539545140.518,24.414,86.914,-370.605,46.875,35.645,0
1539545140.521,22.461,25.879,-414.551,52.246,87.402,0
1539545140.525,10.254,125.488,-341.797,40.527,47.363,0
1539545140.529,11.719,185.059,-303.223,34.668,-10.254,0
1539545140.533,16.602,226.074,-226.074,57.617,36.621,0
1539545140.537,17.090,-7.812,-407.227,74.707,60.547,0
1539545140.541,10.254,0.977,-436.035,51.758,25.391,0
1539545140.545,6.348,217.773,-252.441,35.645,0.977,0
1539545140.549,10.254,145.996,-293.457,38.086,17.090,0
1539545140.553,7.324,159.668,-261.230,32.227,73.242,0
1539545140.557,2.930,256.836,-174.805,27.344,71.777,0
1539545140.561,10.254,116.211,-326.172,23.438,1.953,0
1539545140.564,12.695,-98.145,-518.066,42.480,16.113,0
1539545140.568,5.859,-53.711,-475.586,55.176,74.707,0
1539545140.572,-1.465,195.312,-275.391,27.344,68.359,0
1539545140.576,4.883,223.633,-267.090,16.113,21.484,0
1539545140.580,14.160,32.227,-443.848,13.184,4.395,0
1539545140.584,14.160,62.012,-407.715,19.531,49.316,0
1539545140.588,13.184,293.457,-175.781,31.250,84.473,0
1539545140.592,15.625,187.012,-257.324,42.480,18.555,0
1539545140.596,17.090,59.082,-368.652,53.711,-16.602,0
1539545140.600,19.531,149.414,-254.395,56.152,31.738,0
1539545140.604,23.438,284.668,-92.773,41.504,80.566,0
1539545140.607,30.273,219.238,-141.113,35.156,53.711,0
1539545140.611,36.133,-27.832,-392.090,42.969,-10.742,0
1539545140.615,42.480,-69.336,-447.754,49.316,11.719,0
1539545140.619,39.551,86.914,-303.711,56.152,61.035,0
1539545140.623,28.809,218.262,-161.621,62.012,72.754,0
1539545140.627,41.504,-169.434,-527.344,48.340,-16.113,0
1539545140.631,46.387,-229.980,-642.578,42.969,-54.199,0
1539545140.635,27.832,284.180,-145.996,48.340,60.059,0
1539545140.639,24.902,222.656,-146.973,43.457,84.961,0
1539545140.643,30.273,-9.277,-385.742,34.668,-0.488,0
1539545140.646,31.738,17.090,-397.461,37.109,-16.113,0
1539545140.650,27.344,189.453,-215.820,56.152,61.035,0
1539545140.654,29.297,195.312,-185.547,58.594,93.262,0
1539545140.658,36.621,-83.496,-467.773,57.617,22.949,0
1539545140.662,35.156,-159.668,-583.496,71.777,-24.902,0
1539545140.666,23.438,128.906,-321.777,71.777,29.785,0
1539545140.670,26.855,118.652,-282.715,70.312,75.684,0
1539545140.674,40.527,-149.902,-533.203,66.895,43.457,0
1539545140.678,35.645,-34.180,-488.281,74.219,1.465,0
1539545140.682,25.391,178.711,-280.273,72.754,25.391,0
1539545140.686,23.438,208.496,-202.637,59.082,79.102,0
1539545140.689,18.555,173.340,-224.609,47.363,76.660,0
1539545140.693,24.902,132.812,-280.273,36.133,2.930,0
1539545140.697,34.668,55.664,-355.957,24.902,-32.715,0
1539545140.701,33.691,86.914,-300.293,24.414,32.715,0
1539545140.705,27.344,24.414,-338.379,30.273,61.523,0
1539545140.709,26.855,-83.496,-466.309,40.039,12.695,0
1539545140.713,27.832,-27.832,-451.660,40.527,-32.715,0
1539545140.717,28.809,-180.664,-574.707,45.898,-4.883,0
1539545140.721,18.555,-33.691,-435.059,57.617,79.590,0
1539545140.725,13.672,279.785,-164.062,34.180,62.500,0
1539545140.729,22.949,65.918,-378.418,16.602,-24.902,0
1539545140.732,20.508,-27.832,-474.609,14.160,-13.184,0
1539545140.736,20.020,155.273,-302.734,16.602,61.035,0
1539545140.740,27.832,285.645,-176.758,20.508,77.637,0
1539545140.744,29.297,101.074,-360.840,9.766,8.301,0
1539545140.748,28.809,12.207,-456.543,17.578,-13.672,0
1539545140.752,25.391,98.633,-353.027,27.344,59.570,0
1539545140.756,17.578,89.355,-363.281,23.438,80.566,0
1539545140.760,21.484,-103.516,-568.848,23.438,-4.395,0
1539545140.764,25.879,-263.184,-749.023,32.227,-38.086,0
1539545140.768,16.602,110.840,-426.758,34.180,34.180,0
1539545140.771,17.090,367.188,-150.391,35.156,94.727,0
1539545140.775,27.832,109.863,-392.090,39.551,19.043,0
1539545140.779,34.180,15.137,-524.902,49.805,-34.668,0
1539545140.783,37.598,228.516,-320.312,56.641,24.902,0
1539545140.787,32.227,290.527,-229.492,45.898,70.312,0
1539545140.791,26.855,101.562,-402.832,48.828,40.039,0
1539545140.795,24.414,-15.625,-556.641,67.383,-29.785,0
1539545140.799,24.414,45.410,-507.324,73.242,-1.465,0
1539545140.803,29.785,65.918,-469.727,78.125,58.105,0
1539545140.807,37.598,-133.789,-651.367,67.871,39.062,0
1539545140.811,34.180,-202.148,-756.348,54.688,-26.367,0
1539545140.814,33.691,122.070,-473.633,61.523,-12.207,0
1539545140.818,49.805,238.281,-311.523,69.824,55.664,0
1539545140.822,56.152,187.012,-325.195,75.684,70.312,0
1539545140.826,54.199,189.453,-344.238,105.469,20.508,0
1539545140.830,56.641,215.332,-316.895,127.441,-0.488,0
1539545140.834,58.594,199.707,-287.109,86.426,54.688,0
1539545140.838,51.270,238.770,-216.309,81.543,103.516,0
1539545140.842,50.293,221.680,-232.422,180.664,41.992,0
1539545140.846,47.363,-31.738,-483.398,322.754,-41.504,0
1539545140.850,46.875,-158.691,-580.566,411.133,-4.395,0
1539545140.854,46.875,-121.582,-531.738,424.316,46.875,0
1539545140.857,36.621,71.777,-375.488,402.832,41.992,0
1539545140.861,40.039,159.668,-303.711,335.449,-0.488,0
1539545140.865,44.922,147.461,-295.898,275.391,16.602,0
1539545140.869,34.180,232.422,-189.941,218.750,81.543,0
1539545140.873,26.855,347.168,-66.895,162.598,96.680,0
1539545140.877,33.203,206.055,-204.102,150.391,18.555,0
1539545140.881,33.691,122.559,-284.668,147.949,12.207,0
1539545140.885,36.621,250.488,-138.672,137.207,91.797,0
1539545140.889,39.551,295.410,-78.613,109.863,96.680,0
1539545140.893,42.969,51.758,-324.219,81.543,23.438,0
1539545140.896,46.875,-289.062,-666.504,90.820,-20.996,0
1539545140.900,37.598,-125.488,-533.203,80.566,24.414,0
1539545140.904,33.203,338.379,-95.215,55.664,97.168,0
1539545140.908,39.551,168.457,-226.562,52.246,64.453,0
1539545140.912,32.715,-43.457,-451.660,60.059,-10.742,0
1539545140.916,26.855,167.969,-268.555,75.195,16.602,0
1539545140.920,29.297,315.918,-96.191,91.309,73.730,0
1539545140.924,30.762,201.660,-178.223,55.664,66.895,0
1539545140.928,33.203,4.883,-396.484,16.113,-8.789,0
1539545140.932,28.809,148.926,-280.273,40.039,13.672,0
1539545140.936,15.625,348.145,-54.199,85.449,106.445,0
1539545140.939,26.367,66.406,-290.527,69.824,81.055,0
1539545140.943,41.992,-270.020,-655.273,6.836,9.766,0
1539545140.947,35.156,16.602,-446.777,-15.137,15.625,0
1539545140.951,39.062,244.629,-218.262,-20.508,41.016,0
1539545140.955,46.875,157.227,-267.090,123.535,63.477,0
1539545140.959,30.762,131.348,-292.969,317.383,39.551,0
1539545140.963,28.320,115.723,-306.641,497.070,-2.441,0
1539545140.967,33.203,79.102,-320.801,503.906,20.996,0
1539545140.971,20.996,114.258,-289.551,316.895,62.500,0
1539545140.975,19.531,101.562,-327.148,206.055,31.738,0
1539545140.979,18.555,171.387,-281.738,202.637,3.906,0
1539545140.982,29.297,207.031,-218.750,316.895,29.297,0
1539545140.986,31.250,72.754,-316.406,368.164,45.410,0
1539545140.990,28.320,-21.973,-419.434,407.227,36.133,0
1539545140.994,28.809,83.008,-354.492,479.004,-0.977,0
1539545140.998,25.879,194.336,-234.863,537.109,3.906,2
1539545141.002,31.738,-60.059,-424.316,583.984,39.551,0
1539545141.006,25.879,0.488,-385.254,551.270,71.289,0
1539545141.010,24.414,289.062,-148.926,507.324,41.992,0
1539545141.014,32.227,123.535,-293.457,524.902,-3.906,0
1539545141.018,31.738,116.211,-289.551,546.875,39.062,0
1539545141.021,31.738,192.383,-211.426,549.316,71.289,0
1539545141.025,33.691,103.027,-311.035,477.539,33.691,0
1539545141.029,26.855,29.297,-411.133,415.039,-17.578,0
1539545141.033,18.555,-20.508,-449.707,363.770,8.789,0
1539545141.037,21.484,40.527,-382.324,278.809,62.500,0
1539545141.041,24.414,169.434,-268.555,226.562,55.176,0
1539545141.045,30.762,15.625,-409.180,209.473,-3.906,0
1539545141.049,32.715,-187.012,-593.262,198.242,-19.531,0
1539545141.053,23.926,234.863,-197.266,209.473,68.359,0
1539545141.057,35.156,394.043,-7.812,193.359,83.008,0
1539545141.061,40.039,96.191,-291.992,174.316,-11.719,0
1539545141.064,33.691,107.910,-293.945,176.758,-21.973,0
1539545141.068,39.062,286.621,-96.191,157.715,60.059,0
1539545141.072,43.457,273.926,-89.844,133.301,70.312,0
1539545141.076,42.969,160.645,-212.891,133.789,10.254,0
1539545141.080,42.969,4.395,-382.324,160.645,-18.555,0
1539545141.084,41.504,15.625,-379.883,150.879,27.832,0
1539545141.088,40.527,140.137,-255.371,99.121,79.590,0
1539545141.092,49.316,-121.094,-501.465,100.586,5.371,0
1539545141.096,47.363,-91.797,-514.160,91.797,-30.273,0
1539545141.100,37.109,375.000,-66.895,43.457,44.434,0
1539545141.104,43.457,346.191,-34.180,40.527,71.289,0
1539545141.107,44.434,219.727,-140.137,31.250,51.270,0
1539545141.111,38.086,230.957,-164.551,16.113,-8.301,0
1539545141.115,34.180,325.684,-68.359,14.648,12.695,0
1539545141.119,32.715,343.750,-8.301,9.766,86.426,0
1539545141.123,34.180,299.316,-48.340,-21.973,83.008,0
1539545141.127,35.156,139.160,-236.328,-72.266,22.949,0
1539545141.131,34.180,165.039,-257.812,-128.906,21.973,0
1539545141.135,35.156,240.723,-169.922,-166.504,80.078,0
1539545141.139,35.156,5.371,-394.043,-157.227,69.824,0
1539545141.143,31.250,226.074,-251.953,-166.504,46.875,0
1539545141.146,34.180,360.840,-136.719,-177.734,23.438,0
1539545141.150,29.785,266.113,-214.355,-128.906,42.480,0
1539545141.154,30.762,318.359,-155.762,-93.750,82.031,0
1539545141.158,36.621,364.258,-122.559,-107.910,53.223,0
1539545141.162,44.922,271.973,-227.051,-106.445,4.883,0
1539545141.166,42.969,250.000,-236.816,-118.164,29.785,0
1539545141.170,34.668,353.516,-106.934,-125.000,93.262,0
1539545141.174,41.016,232.422,-209.961,-99.609,62.988,0
1539545141.178,33.203,38.086,-425.781,-99.609,-17.578,0
1539545141.182,33.203,-147.461,-602.539,-89.355,-30.762,0
1539545141.186,41.504,34.180,-431.152,-75.195,44.434,0
1539545141.189,38.574,441.895,-52.246,-77.637,87.402,0
1539545141.193,36.621,306.641,-157.227,-80.078,32.715,0
1539545141.197,31.250,83.496,-375.000,-94.727,-18.066,0
1539545141.201,26.367,274.414,-202.148,-114.746,31.738,0
1539545141.205,27.832,466.309,19.531,-128.906,90.332,0
1539545141.209,27.344,285.645,-119.141,-123.535,52.734,0
1539545141.213,23.438,157.715,-252.930,-118.652,7.324,0
1539545141.217,23.438,280.273,-129.883,-107.422,26.855,0
1539545141.221,20.996,267.578,-110.352,-106.934,70.312,0
1539545141.225,23.926,10.254,-346.191,-106.934,30.273,0
1539545141.229,20.996,-224.609,-612.305,-94.238,-52.246,0
1539545141.232,6.836,138.672,-301.758,-97.656,2.930,0
1539545141.236,7.324,435.059,24.902,-103.516,79.590,0
1539545141.240,27.344,285.645,-79.102,-98.145,70.312,0
1539545141.244,37.598,105.957,-277.832,-72.754,-17.090,0
1539545141.248,9.766,228.027,-180.664,-77.148,-18.555,0
1539545141.252,-0.977,310.547,-59.570,-82.520,69.824,0
1539545141.256,0.488,213.379,-122.559,-81.055,86.914,0
1539545141.260,-6.348,199.219,-168.457,-100.098,26.855,0
1539545141.264,-5.859,250.488,-128.418,-91.309,12.207,0
1539545141.268,-9.766,203.613,-136.230,-91.309,62.012,0
1539545141.271,-13.672,-140.625,-455.078,-76.172,40.039,0
1539545141.275,-22.461,-101.562,-466.797,-54.688,5.859,0
1539545141.279,-20.996,182.617,-235.352,-55.176,0.000,0
1539545141.283,-4.883,204.590,-187.500,-32.715,33.203,0
1539545141.287,-0.977,265.625,-108.398,-21.973,91.797,0
1539545141.291,-4.883,299.805,-95.215,-26.367,67.871,0
1539545141.295,-0.488,281.250,-134.277,-28.320,13.184,0
1539545141.299,1.465,198.730,-199.707,-30.762,17.578,0
1539545141.303,3.906,183.594,-198.242,-20.508,58.105,0
1539545141.307,3.418,288.574,-109.375,-17.090,64.941,0
1539545141.311,4.395,154.785,-259.766,-2.441,1.953,0
1539545141.314,24.902,-129.883,-539.062,24.902,-17.578,0
1539545141.318,23.926,-89.355,-513.672,12.695,37.109,0
1539545141.322,9.277,230.469,-226.562,-11.719,65.430,0
1539545141.326,16.602,247.559,-223.633,-26.367,6.836,0
1539545141.330,26.367,-0.977,-462.402,-0.488,-34.668,0
1539545141.334,21.484,-7.324,-462.402,17.578,-0.977,0
1539545141.338,14.648,274.902,-189.453,-6.348,57.129,0
1539545141.342,18.555,296.387,-150.879,-14.648,51.758,0
1539545141.346,22.461,142.090,-304.688,-8.789,6.836,0
1539545141.350,22.949,163.574,-286.621,0.977,26.367,0
1539545141.354,19.043,299.805,-142.578,3.418,74.219,0
1539545141.357,30.762,291.504,-142.578,11.230,68.848,0
1539545141.361,29.785,3.906,-436.523,19.043,1.465,0
1539545141.365,20.508,10.742,-458.496,20.020,19.531,0
1539545141.369,25.391,238.281,-229.492,39.551,94.727,0
1539545141.373,26.367,226.562,-209.961,47.363,104.492,0
1539545141.377,33.203,-169.434,-589.844,47.852,-5.371,0
1539545141.381,32.227,-187.988,-656.738,48.340,-46.875,0
1539545141.385,25.879,354.004,-120.605,47.363,70.801,0
1539545141.389,22.949,319.824,-72.266,47.363,106.445,0
1539545141.393,22.461,67.871,-320.312,45.410,18.066,0
1539545141.396,23.438,167.480,-259.277,32.227,0.000,0
1539545141.400,17.090,339.355,-64.453,2.930,69.824,0
1539545141.404,25.879,238.281,-130.371,2.441,81.543,0
1539545141.408,35.156,45.898,-314.941,19.043,54.688,0
1539545141.412,28.809,-41.992,-434.570,22.949,7.324,0
1539545141.416,25.391,193.359,-223.633,31.250,33.691,0
1539545141.420,33.203,143.555,-224.609,41.992,58.594,0
1539545141.424,24.902,-86.426,-437.012,42.480,46.875,0
1539545141.428,11.719,84.473,-325.684,40.527,28.809,0
1539545141.432,6.348,241.211,-177.734,25.391,20.996,0
1539545141.436,9.277,236.328,-146.484,6.836,53.711,0
1539545141.439,21.484,244.141,-131.836,6.836,68.359,0
1539545141.443,20.020,270.508,-128.906,-0.488,28.809,0
1539545141.447,21.973,194.824,-217.285,14.160,-2.441,0
1539545141.451,22.461,196.777,-198.730,21.484,45.410,0
1539545141.455,20.020,94.238,-287.109,0.488,62.988,0
1539545141.459,23.926,-47.852,-457.520,-4.883,6.348,0
1539545141.463,29.297,91.797,-351.562,-5.859,-3.906,0
1539545141.467,38.086,-20.020,-418.457,1.465,39.062,0
1539545141.471,34.180,-13.672,-422.852,-11.230,62.988,0
1539545141.475,25.391,316.406,-133.789,-30.762,55.664,0
1539545141.479,30.762,161.621,-271.484,-22.949,-7.812,0
1539545141.482,35.156,82.520,-336.914,-23.438,4.883,0
1539545141.486,30.762,193.359,-225.586,-26.855,52.734,0
1539545141.490,27.832,244.141,-168.945,-20.508,72.266,0
1539545141.494,30.762,84.473,-333.496,-14.160,7.812,0
1539545141.498,28.809,90.332,-345.703,-1.465,-7.324,0
1539545141.502,27.832,106.934,-312.988,0.977,41.016,0
1539545141.506,25.391,166.016,-260.742,-20.508,68.359,0
1539545141.510,25.391,98.633,-324.707,-4.883,27.832,0
1539545141.514,30.762,-166.992,-589.355,12.695,-19.531,0
1539545141.518,21.484,199.219,-266.602,6.348,57.617,0
1539545141.521,13.672,417.480,-20.508,3.418,100.586,0
1539545141.525,14.160,156.250,-262.207,7.324,29.785,0
1539545141.529,18.066,75.195,-371.094,17.578,-14.648,0
1539545141.533,22.461,251.953,-198.242,26.855,29.297,0
1539545141.537,29.785,291.992,-133.789,36.621,65.430,0
1539545141.541,27.344,86.914,-326.660,36.621,26.367,0
1539545141.545,17.090,-57.617,-503.906,32.715,-29.297,0
1539545141.549,23.438,42.480,-412.109,31.250,9.766,0
1539545141.553,26.367,99.609,-332.031,34.180,68.848,0
1539545141.557,32.227,-173.828,-584.961,73.242,20.020,0
1539545141.561,31.250,-194.336,-651.855,65.918,-25.391,0
1539545141.564,19.043,216.797,-288.574,24.414,16.602,0
1539545141.568,25.391,230.469,-231.934,20.508,56.152,0
1539545141.572,23.926,117.676,-325.684,27.832,62.500,0
1539545141.576,21.973,137.207,-346.680,30.762,18.066,0
1539545141.580,18.066,230.469,-267.090,24.902,26.855,0
1539545141.584,20.996,202.637,-250.977,23.926,75.195,0
1539545141.588,27.832,192.871,-240.234,19.043,106.934,0
1539545141.592,17.090,211.914,-235.352,19.531,62.500,0
1539545141.596,18.066,-36.133,-492.188,31.738,-25.391,0
1539545141.600,26.855,-229.004,-674.805,30.762,-15.137,0
1539545141.604,21.973,-226.074,-675.293,36.133,28.809,0
1539545141.607,7.324,90.820,-411.133,33.691,42.480,0
1539545141.611,11.230,196.777,-315.918,27.344,-7.324,0
1539545141.615,18.066,97.656,-385.742,55.664,1.465,0
1539545141.619,23.438,132.324,-338.379,65.430,40.039,0
1539545141.623,25.391,261.719,-213.379,34.180,53.711,0
1539545141.627,27.832,202.148,-271.484,35.645,11.719,0
1539545141.631,26.367,64.453,-406.738,45.410,-23.438,0
1539545141.635,18.555,179.688,-284.668,37.598,43.457,0
1539545141.639,18.555,279.297,-164.062,35.645,74.707,0
1539545141.643,24.414,61.035,-367.188,36.133,18.555,0
1539545141.646,31.738,-307.617,-736.816,37.109,-38.574,0
1539545141.650,27.344,-127.930,-588.867,23.438,19.043,0
1539545141.654,18.066,325.195,-165.039,20.996,80.566,0
1539545141.658,25.879,173.828,-285.156,31.738,44.922,0
1539545141.662,25.879,-9.277,-474.609,18.555,-1.953,0
1539545141.666,21.484,215.332,-266.113,17.090,36.133,0
1539545141.670,24.902,381.348,-66.895,24.414,98.145,0
1539545141.674,21.484,232.422,-180.664,32.227,76.172,0
1539545141.678,25.879,54.199,-376.953,29.785,7.324,0
1539545141.682,38.574,126.465,-342.285,15.625,-7.812,0
1539545141.686,27.832,273.438,-183.594,21.484,55.664,0
1539545141.689,30.273,39.551,-374.512,44.922,57.129,0
1539545141.693,38.574,-271.973,-709.961,68.848,-1.953,0
1539545141.697,22.461,91.797,-424.316,53.223,25.879,0
1539545141.701,25.391,280.762,-218.262,25.879,70.312,0
1539545141.705,31.250,138.672,-317.383,29.785,85.449,0
1539545141.709,24.902,127.930,-344.727,28.809,37.598,0
1539545141.713,22.461,163.574,-329.590,20.020,-6.836,0
1539545141.717,33.203,127.930,-342.773,40.527,25.879,0
1539545141.721,40.527,113.770,-337.891,52.734,55.664,0
1539545141.725,40.527,139.160,-305.176,46.387,36.133,0
1539545141.729,42.969,98.633,-330.078,40.039,-20.508,0
1539545141.732,41.992,156.738,-229.492,17.090,7.324,0
1539545141.736,36.133,92.773,-234.375,6.348,65.918,0
1539545141.740,39.551,-74.707,-397.461,37.109,45.410,0
1539545141.744,42.969,4.883,-361.328,46.875,-3.418,0
1539545141.748,21.973,127.441,-194.824,31.738,0.000,0
1539545141.752,7.812,-122.070,-297.363,24.902,38.574,0
1539545141.756,13.184,-72.754,-171.875,5.859,59.082,0
1539545141.760,13.184,217.285,169.922,-16.113,27.832,0
1539545141.764,14.160,33.203,97.656,-10.254,-22.461,0
1539545141.768,19.043,22.461,167.969,-10.742,20.508,0
1539545141.771,25.879,104.492,309.570,-71.777,60.547,0
1539545141.775,28.320,8.789,253.418,-184.570,20.508,0
1539545141.779,32.715,-68.848,195.801,-243.164,-17.090,0
1539545141.783,41.016,-142.090,169.922,-220.215,16.602,0
1539545141.787,32.715,-112.305,226.562,-211.426,61.035,0
1539545141.791,29.297,8.789,343.262,-225.098,40.527,0
1539545141.795,31.250,-223.145,141.602,-202.637,-33.691,0
1539545141.799,31.738,-436.035,-45.898,-200.684,-20.996,0
1539545141.803,32.715,-86.914,279.297,-200.195,54.688,0
1539545141.807,19.043,15.625,406.738,-187.012,48.340,0
1539545141.811,15.137,-258.301,157.227,-189.453,-26.367,0
1539545141.814,16.602,-261.230,157.227,-168.945,-13.672,0
1539545141.818,19.043,-77.637,360.352,-149.414,52.246,0
1539545141.822,19.043,-124.512,341.797,-150.879,62.500,0
1539545141.826,24.414,-310.547,169.434,-133.789,29.785,0
1539545141.830,20.996,-532.715,-71.777,-120.605,-11.719,0
1539545141.834,13.672,-526.855,-94.727,-128.418,41.504,0
1539545141.838,22.949,-506.836,-81.543,-118.652,80.078,0
1539545141.842,48.828,-806.152,-417.969,-86.914,2.441,0
1539545141.846,36.621,-859.863,-528.320,-96.191,-73.242,0
1539545141.850,9.277,-375.000,-53.223,-100.098,18.066,0
1539545141.854,13.672,-287.109,82.520,-62.500,85.449,0
1539545141.857,20.020,-469.238,-92.285,-45.410,34.668,0
1539545141.861,20.020,-451.660,-156.738,-35.156,-20.508,0
1539545141.865,22.461,-378.418,-168.457,-63.477,-6.836,0
1539545141.869,21.973,-353.027,-216.797,-82.031,77.148,0
1539545141.873,38.574,-419.922,-416.504,-61.523,79.590,0
1539545141.877,53.223,-608.398,-750.000,-57.617,5.859,0
1539545141.881,34.180,-685.059,-979.004,-70.312,-10.254,0
1539545141.885,39.062,-655.273,-960.938,-58.594,42.480,0
1539545141.889,51.758,-811.523,-966.797,-35.156,53.711,0
1539545141.893,32.227,-634.766,-970.215,-30.273,17.578,0
1539545141.896,22.461,-454.102,-969.238,2.930,-1.465,0
1539545141.900,25.879,-476.074,-969.238,27.832,35.156,0
1539545141.904,30.273,-356.934,-969.727,37.598,91.797,0
1539545141.908,27.344,-227.051,-967.285,0.488,70.312,0
1539545141.912,29.785,-458.984,-968.750,-54.199,-26.855,0
1539545141.916,29.297,-500.488,-972.656,-51.270,-21.484,0
1539545141.920,15.137,-247.070,-872.070,-35.156,42.480,0
1539545141.924,9.277,-288.086,-854.980,-40.039,55.664,0
1539545141.928,6.836,-342.773,-920.410,-45.410,10.254,0
1539545141.932,7.812,-514.160,-973.633,-29.785,-29.297,0
1539545141.936,-6.836,-437.012,-888.184,-24.902,9.766,0
1539545141.939,-19.531,3.906,-572.266,-38.574,57.129,0
1539545141.943,-5.371,-86.914,-593.262,-11.230,-0.488,0
1539545141.947,1.465,-276.855,-729.004,-9.766,-41.992,0
1539545141.951,-13.672,7.812,-396.484,-41.016,37.109,0
1539545141.955,-10.742,233.398,-89.355,-14.160,73.730,0
1539545141.959,9.277,44.434,-194.824,8.301,7.324,0
1539545141.963,16.113,-27.344,-222.168,-15.137,-35.645,0
1539545141.967,18.066,182.617,42.969,-19.043,-2.930,0
1539545141.971,0.000,196.289,133.789,-24.902,26.367,0
1539545141.975,-7.324,58.594,61.035,-26.367,7.812,0
1539545141.979,22.461,-70.801,-45.410,-14.160,-74.219,0
1539545141.982,1.953,321.777,335.938,-30.762,-37.598,0
1539545141.986,6.348,717.773,782.715,-37.598,53.223,0
1539545141.990,22.949,598.145,682.617,-21.484,18.555,0
1539545141.994,-15.137,529.297,559.570,-18.555,-40.527,0
1539545141.998,-15.625,764.160,735.840,-23.926,-9.766,0
1539545142.002,4.395,839.355,787.598,-20.508,36.621,0
1539545142.006,20.996,632.812,541.504,-4.883,-2.441,0
1539545142.010,29.785,606.934,443.359,7.324,-45.410,0
1539545142.014,27.832,666.016,478.516,14.648,-39.062,0
1539545142.018,12.207,578.125,393.555,9.766,1.953,0
1539545142.021,13.672,352.051,165.527,0.977,22.461,0
1539545142.025,14.648,420.898,181.641,-14.648,-8.301,0
1539545142.029,-2.441,777.344,503.906,-58.105,-17.090,0
1539545142.033,14.160,801.758,565.918,-46.387,4.395,0
1539545142.037,10.254,723.145,477.539,-3.906,32.227,0
1539545142.041,-12.695,723.145,450.684,-13.672,30.273,0
1539545142.045,-7.324,632.812,352.539,-31.738,-6.836,0
1539545142.049,9.766,482.422,191.895,-37.109,-3.418,0
1539545142.053,30.273,495.117,174.316,-29.785,60.547,0
1539545142.057,21.484,615.723,244.629,-27.344,75.684,0
1539545142.061,4.395,490.723,119.141,-22.461,17.578,0
1539545142.064,14.160,182.129,-122.070,1.953,-9.766,0
1539545142.068,13.184,142.578,-74.219,0.977,46.875,0
1539545142.072,-5.859,459.961,277.832,-8.301,84.473,0
1539545142.076,2.441,526.855,397.461,-3.906,27.832,0
1539545142.080,16.113,255.371,213.867,1.465,-21.973,0
1539545142.084,21.484,328.125,328.613,9.277,38.086,0
1539545142.088,14.160,568.848,614.258,13.672,84.473,0
1539545142.092,17.578,424.316,524.902,29.297,21.484,0
1539545142.096,19.531,207.520,306.641,50.781,-48.340,0
1539545142.100,17.578,285.645,370.117,41.504,-15.625,0
1539545142.104,36.621,569.336,628.418,20.508,64.453,0
1539545142.107,47.363,674.316,700.195,21.484,67.871,0
1539545142.111,29.297,468.262,471.680,32.715,-21.484,0
1539545142.115,6.348,509.277,456.543,19.043,-23.926,0
1539545142.119,3.906,910.645,761.230,-1.953,66.895,0
1539545142.123,-15.625,-985.352,786.621,13.672,54.688,0
1539545142.127,-13.184,986.328,494.629,24.414,-30.762,0
1539545142.131,12.207,-999.023,578.613,14.160,-51.270,0
1539545142.135,5.859,999.512,974.121,19.043,2.930,0
1539545142.139,10.254,999.512,-1000.000,39.062,29.785,0
1539545142.143,17.090,999.512,979.004,45.898,-6.836,0
1539545142.146,20.996,999.512,-1000.000,62.988,-62.988,0
1539545142.150,30.273,999.512,-1000.000,55.664,-9.766,0
1539545142.154,24.414,999.512,998.535,40.039,57.129,0
1539545142.158,20.996,999.512,999.512,44.922,4.395,0
1539545142.162,22.949,999.512,998.535,62.012,-52.246,0
1539545142.166,18.066,999.512,-999.512,53.711,-14.648,0
1539545142.170,27.832,999.512,996.582,54.199,55.664,0
1539545142.174,21.973,999.512,983.887,69.336,52.734,0
1539545142.178,25.879,999.512,988.281,54.199,-14.160,0
1539545142.182,34.668,999.512,997.559,41.992,-3.906,0
1539545142.186,28.809,999.512,979.492,38.086,55.664,0
1539545142.189,31.250,999.512,-999.512,36.133,68.359,0
1539545142.193,30.273,999.512,903.320,46.387,31.738,0
1539545142.197,44.434,999.023,706.543,38.086,1.953,0
1539545142.201,45.898,999.512,631.348,34.668,64.941,0
1539545142.205,34.668,998.535,483.887,60.059,104.492,0
1539545142.209,23.438,991.699,177.734,71.777,32.227,0
1539545142.213,11.230,-981.934,137.207,68.359,1.465,0
1539545142.217,34.180,877.441,-82.031,60.059,4.883,0
1539545142.221,38.574,870.117,-139.160,50.781,42.969,0
1539545142.225,38.086,-977.051,124.512,57.617,62.500,0
1539545142.229,39.062,983.887,-108.887,69.824,-9.766,0
1539545142.232,20.508,973.633,-273.926,68.359,-2.930,0
1539545142.236,2.441,999.023,-253.906,59.082,48.340,0
1539545142.240,13.672,-995.605,-247.070,53.711,53.711,0
1539545142.244,31.738,983.887,-426.758,69.336,1.953,0
1539545142.248,30.762,981.934,-529.785,66.895,0.488,0
1539545142.252,36.133,984.375,-525.391,44.922,50.781,0
1539545142.256,39.062,-971.191,-631.836,42.480,80.078,0
1539545142.260,47.852,888.672,-803.223,64.453,20.508,0
1539545142.264,49.805,720.215,-971.191,58.105,-37.109,0
1539545142.268,21.973,952.637,-766.602,41.016,59.570,0
1539545142.271,3.418,-963.867,-640.137,41.504,113.770,0
1539545142.275,18.555,903.320,-841.797,43.457,50.293,0
1539545142.279,37.109,817.383,-986.816,38.574,-10.254,0
1539545142.283,32.715,907.227,-946.289,51.758,27.344,0
1539545142.287,29.297,954.102,-892.578,55.176,97.656,0
1539545142.291,38.574,715.332,-950.684,35.156,47.852,0
1539545142.295,26.367,416.504,-976.562,51.758,-44.922,0
1539545142.299,6.348,361.816,-965.332,56.152,-25.879,0
1539545142.303,11.719,520.508,-969.727,71.289,53.223,0
1539545142.307,27.832,302.246,-969.238,59.082,43.945,0
1539545142.311,32.715,83.984,-969.238,38.086,-37.109,0
1539545142.314,32.715,370.605,-969.238,50.781,-35.156,0
1539545142.318,34.180,399.414,-969.238,58.594,32.227,0
1539545142.322,19.531,285.156,-969.238,39.551,62.500,0
1539545142.326,18.555,229.492,-969.238,16.602,14.160,0
1539545142.330,18.555,195.801,-969.238,18.555,-15.137,0
1539545142.334,31.250,84.473,-969.238,41.992,22.949,0
1539545142.338,37.109,47.363,-969.238,43.945,68.359,0
1539545142.342,19.043,147.461,-969.238,130.859,75.684,0
1539545142.346,15.625,-179.199,-969.238,387.207,-20.996,0
1539545142.350,18.066,-421.875,-969.238,452.637,-46.387,0
1539545142.354,28.320,-142.578,-969.238,436.035,52.734,0
1539545142.357,21.484,21.973,-970.215,802.734,57.617,0
1539545142.361,15.137,-118.164,-963.379,895.508,-48.340,0
1539545142.365,20.508,-347.656,-979.004,674.316,-62.012,0
1539545142.369,31.250,-426.758,-942.871,951.172,6.836,0
1539545142.373,33.691,-37.598,-819.336,775.391,73.242,0
1539545142.377,22.949,-28.320,-880.371,229.004,24.414,0
1539545142.381,19.531,-258.789,-990.723,-50.293,-36.133,0
1539545142.385,18.066,-123.047,-896.973,-89.844,33.203,0
1539545142.389,20.508,53.223,-762.695,-62.012,92.773,0
1539545142.393,22.461,-165.039,-858.398,38.086,26.855,0
1539545142.396,27.832,-535.156,-1000.000,375.977,-55.664,0
1539545142.400,27.832,-293.457,-829.102,306.152,19.531,0
1539545142.404,25.391,187.012,-512.207,-66.406,93.750,0
1539545142.408,42.969,79.590,-573.242,-185.547,62.012,1
1539545142.412,38.574,-94.727,-748.535,-199.707,7.812,0
1539545142.416,24.414,76.660,-587.891,-206.055,12.207,0
1539545142.420,35.156,262.207,-358.887,-195.312,69.824,0
1539545142.424,39.551,145.020,-428.223,-196.289,54.688,0
1539545142.428,40.039,10.254,-567.383,-184.570,-4.395,0
1539545142.432,46.387,188.965,-400.391,-162.109,14.648,0
1539545142.436,46.387,322.754,-241.699,-152.344,64.453,0
1539545142.439,48.828,118.652,-402.832,-141.113,70.801,0
1539545142.443,49.805,-154.785,-683.105,-136.719,17.090,0
1539545142.447,40.527,62.012,-539.062,-134.277,-30.273,0
1539545142.451,37.109,373.535,-203.125,-103.516,23.926,0
1539545142.455,39.551,303.711,-198.730,-72.754,59.570,0
1539545142.459,45.410,269.531,-226.074,-55.664,35.156,0
1539545142.463,44.922,375.977,-125.000,-54.199,14.648,0
1539545142.467,41.016,368.164,-98.145,-66.895,42.480,0
1539545142.471,41.504,428.223,-15.137,-83.496,101.074,0
1539545142.475,35.156,432.617,-8.789,-106.934,65.918,0
1539545142.479,37.109,383.301,-66.895,-99.609,-1.953,0
1539545142.482,49.316,437.012,-5.859,-60.059,18.555,0
1539545142.486,45.410,352.051,-64.941,-55.176,51.270,0
1539545142.490,35.645,283.203,-138.184,-69.824,62.988,0
1539545142.494,35.645,387.207,-76.660,-57.129,19.043,0
1539545142.498,41.016,475.098,15.137,-52.734,4.883,0
1539545142.502,37.598,210.938,-199.219,-53.223,32.715,0
1539545142.506,27.832,242.676,-194.336,-42.480,56.641,0
1539545142.510,24.414,546.875,76.660,-30.273,38.086,0
1539545142.514,23.438,376.953,-68.359,-14.648,-21.484,0
1539545142.518,29.297,413.574,-5.371,-7.812,38.574,0
1539545142.521,29.785,604.980,207.031,-18.066,93.262,0
1539545142.525,25.879,495.605,111.816,-21.484,44.434,0
1539545142.529,32.715,344.727,-40.039,4.395,-9.766,0
1539545142.533,32.227,304.199,-65.918,21.484,5.371,0
1539545142.537,21.973,400.391,43.457,29.785,68.848,0
1539545142.541,22.461,567.383,209.961,40.039,65.918,0
1539545142.545,32.715,342.285,11.719,30.273,-19.531,0
1539545142.549,42.969,104.004,-227.051,17.090,-45.898,0
1539545142.553,37.109,589.355,243.164,11.719,79.590,0
1539545142.557,29.297,768.066,478.516,20.020,110.352,0
1539545142.561,36.621,481.445,211.426,9.277,15.137,0
1539545142.564,35.645,486.328,210.938,-5.371,10.742,0
1539545142.568,33.203,635.742,392.090,-9.277,50.293,0
1539545142.572,31.250,651.367,454.590,-13.184,68.848,0
1539545142.576,33.203,507.812,329.102,-26.855,23.926,0
1539545142.580,40.527,260.254,61.523,-12.695,-50.781,0
1539545142.584,40.039,316.895,99.121,13.184,6.836,0
1539545142.588,34.668,638.672,424.316,8.789,106.934,0
1539545142.592,42.969,348.145,160.645,13.672,41.992,0
1539545142.596,44.434,201.172,-37.598,17.090,-25.879,0
1539545142.600,28.809,635.742,364.746,0.000,26.855,0
1539545142.604,24.414,634.277,423.828,2.930,67.383,0
1539545142.607,31.250,541.504,359.863,12.695,68.359,0
1539545142.611,36.621,583.496,384.766,10.254,27.832,0
1539545142.615,24.414,657.715,480.469,9.766,33.691,0
1539545142.619,23.438,615.234,486.816,-1.465,67.871,0
1539545142.623,32.227,567.383,458.008,1.465,64.941,0
1539545142.627,27.832,383.301,252.930,10.742,-10.254,0
1539545142.631,20.508,390.137,202.148,0.977,-24.902,0
1539545142.635,23.438,500.000,315.430,3.906,40.039,0
1539545142.639,14.160,266.113,76.660,4.883,45.410,0
1539545142.643,2.930,449.219,166.992,7.812,25.879,0
1539545142.646,4.395,625.977,310.547,17.578,10.254,0
1539545142.650,10.742,554.688,256.836,-4.395,45.898,0
1539545142.654,20.508,585.449,285.645,-6.348,86.914,0
1539545142.658,17.090,624.023,301.758,-2.441,58.105,0
1539545142.662,14.648,518.066,165.527,-4.883,-1.953,0
1539545142.666,21.484,509.766,146.973,2.441,33.203,0
1539545142.670,20.020,597.656,236.816,6.836,90.820,0
1539545142.674,23.438,432.617,49.805,12.207,65.430,0
1539545142.678,24.902,293.945,-177.246,-6.836,-1.465,0
1539545142.682,23.438,167.969,-355.957,-13.184,-8.301,0
1539545142.686,26.855,215.820,-352.539,-9.766,41.016,0
1539545142.689,25.391,604.492,-3.418,-7.812,86.426,0
1539545142.693,31.738,545.898,-36.133,25.879,57.129,0
1539545142.697,27.344,245.605,-346.680,41.992,-8.789,0
1539545142.701,17.090,386.719,-230.469,25.391,34.668,0
1539545142.705,17.578,643.555,54.199,36.133,96.680,0
1539545142.709,22.461,410.645,-165.039,43.457,24.902,0
1539545142.713,25.879,270.020,-349.121,35.156,-27.344,0
1539545142.717,19.043,459.961,-164.551,26.367,28.809,0
1539545142.721,11.719,477.539,-121.094,20.020,92.285,0
1539545142.725,14.160,227.051,-370.117,27.344,46.387,0
1539545142.729,16.602,17.090,-628.906,21.973,-40.527,0
1539545142.732,14.160,370.117,-328.613,20.020,19.531,0
1539545142.736,9.277,579.102,-93.750,19.531,70.312,0
1539545142.740,-0.977,394.043,-254.395,8.789,50.781,0
1539545142.744,10.254,295.898,-382.324,20.996,4.883,0
1539545142.748,21.484,356.934,-356.934,29.297,-14.648,0
1539545142.752,20.020,435.547,-255.859,22.461,45.410,0
1539545142.756,30.273,313.965,-354.004,22.461,67.383,0
1539545142.760,29.297,244.141,-458.496,13.672,17.578,0
1539545142.764,28.809,293.945,-430.664,12.207,-20.020,0
1539545142.768,25.391,246.094,-450.684,45.410,23.926,0
1539545142.771,32.715,39.551,-621.094,60.547,59.570,0
1539545142.775,32.227,84.961,-608.887,25.879,38.086,0
1539545142.779,20.020,404.297,-332.520,12.207,12.695,0
1539545142.783,22.461,439.453,-250.488,23.926,37.109,0
1539545142.787,22.461,373.535,-277.832,29.297,74.707,0
1539545142.791,21.484,397.461,-260.742,29.785,54.688,0
1539545142.795,27.832,368.164,-302.246,38.086,0.977,0
1539545142.799,22.949,311.035,-329.590,47.363,24.414,0
1539545142.803,18.555,300.293,-317.383,31.250,66.895,0
1539545142.807,24.902,380.371,-258.301,31.250,65.918,0
1539545142.811,29.297,273.438,-380.371,42.480,9.277,0
1539545142.814,26.855,-62.988,-732.910,33.691,-41.504,0
1539545142.818,32.715,-33.691,-746.094,20.508,17.578,0
1539545142.822,26.855,326.172,-421.387,34.180,72.266,0
1539545142.826,27.344,412.598,-321.289,27.344,47.852,0
1539545142.830,27.832,147.461,-570.801,13.672,-13.184,0
1539545142.834,8.789,172.363,-547.852,39.551,28.320,0
1539545142.838,12.695,448.242,-269.043,37.598,90.332,0
1539545142.842,19.043,413.086,-289.551,16.113,66.406,0
1539545142.846,20.996,243.652,-471.680,26.855,14.160,0
1539545142.850,20.508,222.656,-505.859,41.504,13.672,0
1539545142.854,15.625,343.750,-379.883,31.738,64.453,0
1539545142.857,31.250,321.289,-394.531,35.156,68.848,0
1539545142.861,40.527,8.789,-737.793,50.781,-11.230,0
1539545142.865,31.738,-84.473,-900.391,44.922,-20.996,0
1539545142.869,31.250,136.719,-737.793,32.227,53.711,0
1539545142.873,32.227,196.289,-724.609,51.270,60.547,0
1539545142.877,40.527,-122.559,-926.270,45.410,-28.809,0
1539545142.881,34.180,-48.828,-943.848,24.414,-26.367,0
1539545142.885,26.367,340.332,-719.727,34.668,63.477,0
1539545142.889,39.551,296.387,-711.914,42.969,96.191,0
1539545142.893,40.527,119.141,-909.668,52.246,31.250,0
1539545142.896,37.598,103.027,-971.191,48.828,-32.227,0
1539545142.900,43.945,247.559,-823.730,74.707,23.926,0
1539545142.904,44.922,208.496,-811.035,141.113,75.684,0
1539545142.908,50.781,-54.199,-964.844,123.535,17.090,0
1539545142.912,43.457,-141.113,-994.141,79.590,-54.688,0
1539545142.916,22.461,138.672,-880.371,65.918,-13.184,0
1539545142.920,32.227,156.250,-841.309,568.359,46.875,0
1539545142.924,38.086,-38.086,-940.430,-956.055,37.109,0
1539545142.928,33.203,41.016,-924.316,535.645,-7.812,0
1539545142.932,34.180,108.887,-927.734,52.246,-38.086,0
1539545142.936,27.344,224.609,-862.305,418.945,28.809,0
1539545142.939,37.598,280.273,-732.910,600.098,62.988,0
1539545142.943,33.203,273.438,-745.117,258.789,8.789,0
1539545142.947,37.598,214.844,-809.570,294.922,-22.461,0
1539545142.951,42.969,238.770,-776.367,135.254,36.133,0
1539545142.955,26.855,145.996,-882.812,-9.766,55.176,0
1539545142.959,23.926,33.203,-975.586,395.996,1.465,0
1539545142.963,30.273,125.488,-897.949,903.809,-16.113,0
1539545142.967,30.762,205.566,-793.945,966.309,20.020,0
1539545142.971,22.949,305.664,-663.086,492.188,57.129,0
1539545142.975,27.344,437.988,-531.250,237.793,70.801,0
1539545142.979,26.855,311.035,-587.402,891.602,17.090,0
1539545142.982,23.438,-51.758,-879.883,911.133,-25.879,0
1539545142.986,12.695,11.719,-878.906,661.133,22.949,0
1539545142.990,16.602,362.305,-535.156,973.145,47.363,0
1539545142.994,25.391,256.348,-573.242,-951.660,-1.953,0
1539545142.998,21.973,147.949,-683.594,584.473,-18.066,0
1539545143.002,20.020,202.637,-643.066,81.055,45.898,0
1539545143.006,15.625,231.445,-641.113,96.191,80.078,0
1539545143.010,19.531,86.914,-760.254,285.645,10.742,0
1539545143.014,25.391,-138.672,-928.711,373.047,-49.316,0
1539545143.018,13.184,219.727,-635.742,296.875,24.414,0
1539545143.021,5.859,464.355,-341.309,590.332,89.355,0
1539545143.025,24.414,263.184,-450.684,-953.613,38.086,0
1539545143.029,16.602,191.895,-512.207,910.645,-13.184,0
1539545143.033,16.113,322.754,-427.734,-201.660,9.766,0
1539545143.037,28.320,398.926,-373.047,-380.371,68.359,0
1539545143.041,19.531,323.730,-366.699,752.930,67.383,0
1539545143.045,14.160,60.059,-581.543,-957.031,-36.133,0
1539545143.049,6.836,94.727,-545.410,955.566,-11.230,0
1539545143.053,12.207,244.629,-362.793,-980.469,69.336,0
1539545143.057,20.020,9.277,-582.031,862.793,37.598,0
1539545143.061,29.785,8.789,-641.602,675.781,-2.441,0
1539545143.064,34.668,363.281,-341.309,614.746,8.301,0
1539545143.068,20.996,409.180,-224.121,827.148,58.594,0
1539545143.072,26.367,304.199,-256.348,988.281,66.895,0
1539545143.076,26.855,325.195,-235.840,979.492,26.855,0
1539545143.080,12.207,322.754,-232.910,-994.141,-18.066,0
1539545143.084,15.137,236.328,-291.992,985.840,-4.395,0
1539545143.088,27.344,315.430,-197.754,-976.074,74.707,0
1539545143.092,34.668,386.719,-130.859,938.477,68.359,0
1539545143.096,21.973,175.781,-354.980,837.891,1.465,0
1539545143.100,13.184,31.738,-489.258,982.910,19.531,0
1539545143.104,15.137,-8.301,-529.297,-992.676,50.781,0
1539545143.107,3.906,250.000,-319.824,992.676,51.758,0
1539545143.111,22.949,357.910,-220.215,-1000.000,2.441,0
1539545143.115,38.574,180.664,-380.371,999.512,-30.273,0
1539545143.119,27.832,246.094,-291.504,999.512,21.484,0
1539545143.123,27.832,451.660,-55.176,999.512,75.684,0
1539545143.127,33.691,363.770,-123.047,999.512,23.926,0
1539545143.131,33.203,217.285,-268.066,999.512,-14.648,0
1539545143.135,29.297,324.219,-157.227,999.512,46.875,0
1539545143.139,32.715,441.406,-4.883,999.512,89.844,0
1539545143.143,41.992,252.930,-176.758,999.512,43.945,0
1539545143.146,37.109,-103.516,-546.875,999.512,-28.809,0
1539545143.150,22.461,35.645,-441.406,999.512,-0.977,0
1539545143.154,15.137,519.531,36.133,999.512,82.031,0
1539545143.158,27.344,401.367,-36.621,999.512,61.523,0
1539545143.162,28.809,159.668,-310.059,999.512,-16.113,0
1539545143.166,15.137,298.828,-231.445,999.512,-20.996,0
1539545143.170,15.137,517.578,-7.812,999.512,76.172,0
1539545143.174,25.391,439.453,-73.730,999.512,91.797,0
1539545143.178,37.109,145.508,-415.527,999.512,-0.488,0
1539545143.182,37.598,230.957,-392.090,999.512,-3.418,0
1539545143.186,29.297,481.934,-127.930,999.512,74.707,0
1539545143.189,34.668,295.898,-263.672,999.512,89.355,0
1539545143.193,51.758,-131.836,-712.402,999.512,-5.859,0
1539545143.197,38.086,83.008,-583.496,999.512,-38.086,0
1539545143.201,23.926,530.762,-123.047,999.512,56.641,0
1539545143.205,32.715,429.199,-155.762,999.512,82.520,0
1539545143.209,33.203,349.609,-230.957,999.512,49.316,0
1539545143.213,30.762,429.199,-154.785,999.512,15.625,0
1539545143.217,36.133,350.586,-202.637,999.512,17.090,0
1539545143.221,32.227,403.320,-117.188,999.512,92.285,0
1539545143.225,28.809,477.051,-26.855,999.512,93.262,0
1539545143.229,33.203,410.156,-110.352,999.512,14.648,0
1539545143.232,30.273,448.242,-52.734,999.512,35.645,0
1539545143.236,28.809,409.180,-30.273,999.512,107.910,0
1539545143.240,37.598,270.996,-157.227,999.512,82.031,0
1539545143.244,34.668,342.773,-110.840,999.512,15.137,0
1539545143.248,19.531,434.570,4.883,999.512,6.836,0
1539545143.252,19.531,227.539,-156.250,999.512,35.156,0
1539545143.256,21.484,312.988,-79.590,-997.070,73.242,0
1539545143.260,22.949,504.395,88.867,979.980,43.457,0
1539545143.264,25.879,335.938,-74.707,994.629,-4.395,0
1539545143.268,31.250,365.723,-37.109,924.316,46.875,0
1539545143.271,35.156,541.992,108.398,-40.039,114.746,0
1539545143.275,32.715,396.484,-106.445,-957.520,64.453,0
1539545143.279,34.668,176.758,-385.254,-959.473,-29.785,0
1539545143.283,37.598,176.270,-389.648,-949.219,0.488,0
1539545143.287,27.344,283.691,-270.996,-974.121,69.336,0
1539545143.291,20.020,427.246,-133.789,-969.238,57.129,0
1539545143.295,26.855,228.516,-319.824,-965.820,-23.926,0
1539545143.299,34.180,51.758,-500.000,-982.422,-22.461,0
1539545143.303,26.855,427.734,-151.855,-906.738,60.547,0
1539545143.307,21.484,571.289,20.508,-900.879,72.754,0
1539545143.311,19.043,350.586,-195.801,-980.957,2.930,0
1539545143.314,18.555,312.012,-258.301,-966.797,-24.902,0
1539545143.318,9.766,520.508,-25.391,-968.262,49.316,0
1539545143.322,8.301,587.402,93.750,-969.238,104.492,0
1539545143.326,20.996,392.578,-82.520,-969.238,40.039,0
1539545143.330,23.926,132.324,-370.117,-969.238,-43.945,0
1539545143.334,17.578,187.500,-327.637,-969.238,9.277,0
1539545143.338,14.648,426.270,-75.195,-969.238,87.402,0
1539545143.342,17.090,163.086,-327.637,-969.238,26.367,0
1539545143.346,24.414,1.465,-557.129,-969.238,-62.988,0
1539545143.350,24.902,452.148,-141.602,-969.238,0.488,0
1539545143.354,20.996,528.320,13.672,-969.238,81.055,0
1539545143.357,21.484,338.867,-157.227,-969.238,44.434,0
1539545143.361,23.438,330.078,-215.820,-969.238,-20.020,0
1539545143.365,17.578,442.383,-97.168,-969.238,8.789,0
1539545143.369,17.578,441.895,-40.039,-969.238,79.590,0
1539545143.373,23.926,389.160,-68.359,-969.238,82.520,0
1539545143.377,23.438,218.750,-266.113,-969.238,-1.465,0
1539545143.381,26.367,161.621,-375.488,-969.238,-25.879,0
1539545143.385,30.273,241.211,-289.551,-969.238,29.297,0
1539545143.389,16.602,54.199,-468.750,-969.238,29.297,0
1539545143.393,3.418,251.465,-334.961,-969.238,16.113,0
1539545143.396,8.301,450.684,-142.578,-969.238,-2.930,0
1539545143.400,16.113,357.910,-196.777,-969.238,17.578,0
1539545143.404,17.578,430.664,-101.074,-969.238,78.613,0
1539545143.408,11.230,464.844,-62.500,-972.168,51.270,0
1539545143.412,23.926,281.250,-266.602,-958.496,-43.457,0
1539545143.416,31.738,301.270,-252.930,-961.914,-2.930,0
1539545143.420,31.250,429.199,-99.121,-937.500,71.777,0
1539545143.424,31.250,257.812,-242.676,-421.387,42.480,0
1539545143.428,18.066,189.941,-301.270,511.230,-1.953,0
1539545143.432,23.438,71.777,-379.395,-996.094,-22.949,0
1539545143.436,14.160,140.625,-309.082,985.352,23.926,0
1539545143.439,6.836,577.148,117.676,990.234,97.656,0
1539545143.443,17.090,472.656,44.922,-997.559,49.805,0
1539545143.447,22.949,218.262,-212.891,999.512,-0.488,0
1539545143.451,21.973,340.332,-107.422,999.512,47.852,0
1539545143.455,21.973,564.453,131.836,999.512,87.402,0
1539545143.459,30.273,421.875,16.113,999.512,44.434,0
1539545143.463,29.297,275.879,-155.762,999.512,-15.137,0
1539545143.467,30.273,423.340,-17.578,-997.559,8.301,0
1539545143.471,26.367,406.738,-3.906,934.570,56.641,0
1539545143.475,17.090,209.961,-178.711,-864.746,39.062,0
1539545143.479,25.391,43.457,-413.574,273.926,-22.949,0
1539545143.482,29.785,346.680,-245.117,-1000.000,9.277,0
1539545143.486,20.996,600.098,16.602,-962.891,66.406,0
1539545143.490,21.973,409.668,-131.348,-937.500,41.504,0
1539545143.494,23.926,304.688,-264.648,-977.539,-14.160,0
1539545143.498,20.996,430.176,-156.250,-969.238,-13.184,0
1539545143.502,24.902,540.039,0.977,-971.191,61.035,0
1539545143.506,22.949,423.340,-76.660,-946.289,74.707,0
1539545143.510,32.715,348.145,-170.898,-998.535,25.391,0
1539545143.514,32.715,397.949,-122.559,-779.297,5.371,0
1539545143.518,25.879,295.410,-165.039,-96.680,27.344,0
1539545143.521,26.855,69.824,-343.750,256.348,50.781,0
1539545143.525,10.254,105.469,-337.402,425.781,27.344,0
1539545143.529,11.719,381.348,-89.844,653.809,-9.277,0
1539545143.533,16.602,435.547,22.461,731.934,23.438,0
1539545143.537,13.672,406.738,49.316,664.551,77.148,0
1539545143.541,21.484,436.523,74.707,431.152,67.383,0
1539545143.545,27.344,367.676,-24.414,437.012,-12.207,0
1539545143.549,26.855,275.391,-96.680,608.887,-25.879,0
1539545143.553,20.508,315.430,-24.902,628.906,33.691,0
1539545143.557,9.277,481.934,161.133,783.203,87.402,0
1539545143.561,14.648,424.805,102.051,925.781,27.344,0
1539545143.564,24.414,154.297,-181.152,-938.965,-28.809,0
1539545143.568,24.902,0.488,-372.070,648.926,18.555,0
1539545143.572,20.508,279.785,-221.191,-571.289,47.852,0
1539545143.576,27.832,453.125,-122.070,-1000.000,17.090,0
1539545143.580,38.086,247.559,-333.496,-933.105,-34.668,0
1539545143.584,36.133,253.906,-348.145,-947.754,-14.160,0
1539545143.588,36.133,486.328,-104.492,-973.145,66.895,0
1539545143.592,47.363,430.664,-127.441,-862.305,41.016,0
1539545143.596,40.039,270.996,-296.387,-620.605,-18.555,0
1539545143.600,18.555,269.043,-294.922,-568.848,11.719,0
1539545143.604,13.184,450.195,-104.004,-812.500,88.379,0
1539545143.607,25.879,505.859,-50.781,-981.934,87.402,0
1539545143.611,44.434,194.824,-386.230,-960.938,-12.207,0
1539545143.615,41.016,119.629,-506.836,-953.125,-23.438,0
1539545143.619,28.320,360.352,-246.582,-610.840,36.621,0
1539545143.623,31.738,380.859,-156.250,-439.941,75.195,0
1539545143.627,29.785,69.824,-472.656,-270.996,7.812,0
1539545143.631,22.461,115.723,-490.723,-202.148,-52.246,0
1539545143.635,14.648,504.395,-85.449,-382.812,34.180,0
1539545143.639,18.555,461.914,-42.480,-321.777,66.406,0
1539545143.643,28.320,311.523,-170.898,-250.977,15.625,0
1539545143.646,29.785,395.996,-60.547,565.430,0.000,0
1539545143.650,30.273,502.930,137.207,-940.430,33.691,0
1539545143.654,29.785,471.191,180.664,922.852,81.055,0
1539545143.658,36.133,240.234,-34.668,-960.938,42.969,0
1539545143.662,34.180,88.867,-246.582,874.023,-43.945,0
1539545143.666,35.156,362.305,-72.754,-487.793,-3.906,0
1539545143.670,41.504,382.812,-78.125,-1000.000,57.129,0
1539545143.674,41.504,186.035,-273.438,-906.738,59.082,0
1539545143.678,42.480,281.738,-236.816,-950.195,16.113,0
1539545143.682,37.598,298.340,-247.070,-1000.000,-23.926,0
1539545143.686,39.551,385.742,-148.926,-650.391,35.156,0
1539545143.689,41.992,492.676,14.160,332.031,87.402,0
1539545143.693,39.551,478.516,42.480,912.598,34.668,0
1539545143.697,52.246,405.762,-31.738,-971.191,-11.719,0
1539545143.701,44.922,391.113,-45.898,850.098,26.855,0
1539545143.705,35.645,310.547,-160.156,189.941,59.570,0
1539545143.709,40.527,212.402,-316.406,364.258,24.902,0
1539545143.713,32.715,317.383,-210.938,977.539,-6.836,0
1539545143.717,35.156,203.125,-281.250,-997.559,9.277,0
1539545143.721,38.574,220.215,-283.203,983.887,55.664,1
1539545143.725,38.086,558.594,38.086,-998.047,80.078,0
1539545143.729,43.945,392.090,-112.305,999.512,13.672,0
1539545143.732,35.645,281.738,-230.469,999.512,3.906,0
1539545143.736,29.785,414.551,-84.961,-987.793,79.102,0
1539545143.740,31.738,445.312,-46.875,929.199,70.801,0
1539545143.744,36.621,290.527,-203.125,-885.742,-4.883,0
1539545143.748,36.133,207.520,-300.293,575.195,-25.391,0
1539545143.752,33.691,289.062,-282.715,-886.719,47.363,0
1539545143.756,35.645,322.266,-293.945,-801.758,89.355,0
1539545143.760,32.227,205.078,-395.020,-401.855,27.344,0
1539545143.764,32.227,17.578,-598.145,-220.703,-23.438,0
1539545143.768,22.461,346.680,-274.902,172.363,40.527,0
1539545143.771,19.531,619.141,94.238,607.910,115.234,0
1539545143.775,24.414,439.941,-2.441,-952.637,83.496,0
1539545143.779,23.926,310.547,-146.484,838.379,12.207,0
1539545143.783,16.602,457.520,-35.156,157.715,42.969,0
1539545143.787,19.531,533.691,60.059,235.352,109.863,0
1539545143.791,33.691,447.266,35.156,967.285,111.816,0
1539545143.795,38.086,230.469,-198.242,755.859,25.879,0
1539545143.799,32.715,141.602,-363.281,375.488,-15.625,0
1539545143.803,25.879,227.051,-279.297,746.582,38.574,0
1539545143.807,30.273,98.633,-373.535,943.359,47.852,0
1539545143.811,27.344,23.438,-499.512,784.668,-4.395,0
1539545143.814,23.438,366.211,-230.469,48.828,5.859,0
1539545143.818,28.809,465.820,-136.719,-774.414,45.410,0
1539545143.822,23.926,371.582,-223.145,-984.375,64.453,0
1539545143.826,17.578,393.066,-210.449,-946.777,29.785,0
1539545143.830,19.043,374.512,-230.469,-971.680,-18.066,0
1539545143.834,19.531,309.570,-258.789,-969.727,5.371,0
1539545143.838,19.531,324.219,-218.262,-969.238,48.340,0
1539545143.842,28.320,366.211,-183.105,-969.238,25.391,0
1539545143.846,31.250,198.730,-368.652,-969.238,-25.879,0
1539545143.850,27.344,46.875,-525.391,-969.238,-23.438,0
1539545143.854,29.785,50.781,-537.598,-969.238,20.996,0
1539545143.857,24.902,344.727,-277.832,-969.238,54.199,0
1539545143.861,29.785,421.875,-190.430,-969.238,0.977,0
1539545143.865,31.250,271.484,-324.219,-969.238,-19.531,0
1539545143.869,22.949,372.559,-193.848,-969.238,51.270,0
1539545143.873,32.227,517.578,-3.906,-969.238,88.867,0
1539545143.877,32.227,405.273,-92.773,-969.238,31.738,0
1539545143.881,20.508,234.375,-268.555,-969.238,-29.297,0
1539545143.885,17.090,384.277,-95.215,-969.238,46.875,0
1539545143.889,26.367,507.812,85.938,-969.238,95.215,0
1539545143.893,41.992,275.879,-130.859,-969.238,28.320,0
1539545143.896,40.527,-62.988,-513.184,-969.238,-38.574,0
1539545143.900,30.762,99.609,-404.297,-969.238,7.324,0
1539545143.904,26.855,528.809,32.227,-969.238,84.473,0
1539545143.908,34.668,347.168,-115.234,-969.238,36.133,0
1539545143.912,42.480,74.707,-446.777,-969.238,-63.965,0
1539545143.916,30.762,263.672,-307.129,-969.238,-42.969,0
1539545143.920,22.949,474.121,-46.387,-969.238,50.293,0
1539545143.924,29.785,365.723,-103.027,-969.238,51.758,0
1539545143.928,35.645,193.359,-284.180,-969.238,-12.695,0
1539545143.932,29.297,272.461,-231.445,-969.238,-22.461,0
1539545143.936,22.949,453.613,-12.207,-969.238,61.035,0
1539545143.939,35.156,257.324,-154.785,-969.238,76.660,0
1539545143.943,44.922,-121.094,-596.191,-969.238,-28.320,0
1539545143.947,31.738,130.859,-439.453,-969.238,-44.434,0
1539545143.951,36.133,454.102,-81.543,-969.238,32.227,0
1539545143.955,48.828,412.598,-61.523,-967.285,90.820,0
1539545143.959,34.668,286.621,-193.359,-971.191,38.086,0
1539545143.963,19.043,300.293,-207.031,-955.566,-28.809,0
1539545143.967,17.090,300.781,-165.039,-899.414,19.531,0
1539545143.971,13.672,267.578,-162.109,-853.516,75.195,0
1539545143.975,19.531,369.141,-62.988,-819.824,76.660,0
1539545143.979,23.926,312.500,-142.578,-777.344,0.488,0
1539545143.982,15.137,298.340,-173.828,-740.723,-1.465,0
1539545143.986,17.578,248.047,-205.078,-703.613,61.035,0
1539545143.990,22.949,194.336,-277.832,-663.086,79.590,0
1539545143.994,23.926,291.016,-223.633,-635.254,42.480,0
1539545143.998,25.391,307.617,-208.008,-599.609,9.277,0
1539545144.002,25.391,129.883,-360.352,-560.547,57.129,0
1539545144.006,11.230,220.703,-280.762,-529.297,103.516,0
1539545144.010,13.184,426.270,-76.660,-488.281,80.078,0
1539545144.014,25.391,254.883,-231.445,-479.004,25.879,0
1539545144.018,25.391,248.535,-228.516,-475.098,53.223,0
1539545144.021,20.020,332.031,-127.930,-457.520,101.562,0
1539545144.025,16.602,252.441,-206.055,-432.617,78.125,0
1539545144.029,26.855,131.348,-344.238,-404.297,6.348,0
1539545144.033,26.367,78.125,-387.695,-384.277,16.113,0
1539545144.037,14.648,173.828,-287.109,-361.816,76.172,0
1539545144.041,19.043,363.281,-96.191,-335.938,89.355,0
1539545144.045,38.574,167.969,-276.855,-314.941,17.090,0
1539545144.049,28.320,-24.902,-495.117,-312.012,13.184,0
1539545144.053,6.348,333.984,-161.621,-308.105,89.355,0
1539545144.057,12.695,449.707,-4.395,-291.016,90.332,0
1539545144.061,16.113,270.996,-170.898,-279.297,58.105,0
1539545144.064,16.602,198.242,-275.879,-250.977,15.625,0
1539545144.068,18.066,355.469,-100.098,-233.398,55.664,0
1539545144.072,17.090,433.105,32.227,-233.398,113.770,0
1539545144.076,24.414,229.492,-168.945,-209.961,46.875,0
1539545144.080,30.762,21.973,-425.293,-185.547,-27.344,0
1539545144.084,18.066,156.738,-300.293,-181.152,45.898,0
1539545144.088,13.184,226.562,-204.590,-175.293,88.867,0
1539545144.092,27.832,-74.707,-523.926,-169.922,4.395,0
1539545144.096,29.785,-52.246,-582.031,-167.480,-38.086,0
1539545144.100,24.902,398.926,-140.625,-150.391,34.668,0
1539545144.104,34.180,446.777,-11.719,-133.301,104.004,0
1539545144.107,32.227,324.219,-108.887,-149.902,101.562,0
1539545144.111,21.973,238.281,-243.164,-152.344,4.395,0
1539545144.115,23.438,279.297,-221.191,-137.207,0.000,0
1539545144.119,26.855,320.312,-129.883,-125.488,88.379,0
1539545144.123,20.508,257.324,-169.434,-109.863,83.008,0
1539545144.127,25.391,92.773,-357.422,-96.191,18.066,0
1539545144.131,29.297,76.172,-424.805,-100.586,-11.719,0
1539545144.135,22.949,218.750,-256.836,-104.004,50.781,0
1539545144.139,26.367,-34.180,-480.957,-86.914,59.082,0
1539545144.143,27.344,59.570,-458.496,-80.566,29.297,0
1539545144.146,25.879,336.426,-200.684,-68.359,24.414,0
1539545144.150,24.902,273.926,-228.516,-53.223,37.109,0
1539545144.154,23.926,284.668,-199.707,-61.523,70.312,0
1539545144.158,24.414,375.977,-89.844,-65.430,69.824,0
1539545144.162,25.391,284.180,-176.270,-63.965,20.020,0
1539545144.166,18.066,240.234,-225.098,-61.523,30.273,0
1539545144.170,19.043,336.426,-96.680,-47.852,94.727,0
1539545144.174,24.414,227.051,-179.688,-35.156,93.262,0
1539545144.178,18.555,142.090,-302.246,-27.832,37.109,0
1539545144.182,23.926,-2.930,-463.379,-32.715,6.836,0
1539545144.186,25.879,32.715,-446.289,-35.645,44.922,0
1539545144.189,19.043,418.457,-60.059,-33.691,95.215,0
1539545144.193,21.973,315.918,-125.488,-26.855,40.527,0
1539545144.197,20.508,42.480,-408.203,-15.137,-19.043,0
1539545144.201,15.137,146.484,-322.754,-13.184,28.809,0
1539545144.205,17.090,440.430,2.441,-24.414,112.793,0
1539545144.209,25.391,275.879,-130.371,-7.812,62.988,0
1539545144.213,25.391,30.762,-418.457,-2.930,-44.434,0
1539545144.217,12.207,235.352,-211.426,-28.809,8.789,0
1539545144.221,12.695,242.188,-157.227,-32.227,68.359,0
1539545144.225,19.043,6.348,-395.996,-23.438,26.367,0
1539545144.229,23.926,-123.535,-584.473,-15.625,-26.855,0
1539545144.232,24.414,92.285,-434.570,-10.742,-9.277,0
1539545144.236,15.625,383.789,-106.934,-13.672,72.266,0
1539545144.240,9.766,305.664,-137.207,-8.301,80.078,0
1539545144.244,13.184,152.832,-317.383,-4.883,3.906,0
1539545144.248,12.207,285.645,-200.195,-3.906,9.277,0
1539545144.252,12.695,392.578,-43.945,7.812,73.730,0
1539545144.256,16.113,257.812,-157.715,15.625,78.613,0
1539545144.260,15.137,194.824,-261.230,21.973,42.969,0
1539545144.264,23.438,174.805,-322.266,15.625,-29.785,0
1539545144.268,28.320,139.648,-354.980,-0.977,9.766,0
1539545144.271,25.391,-9.277,-490.723,0.488,72.266,0
1539545144.275,27.344,-36.133,-574.707,10.254,22.461,0
1539545144.279,30.273,227.051,-374.512,13.672,-17.578,0
1539545144.283,31.738,279.785,-298.828,7.812,10.254,0
1539545144.287,28.320,288.086,-248.535,0.977,89.355,0
1539545144.291,30.762,329.590,-203.613,1.465,89.844,0
1539545144.295,32.227,245.117,-308.594,1.465,4.883,0
1539545144.299,30.273,144.531,-408.203,6.836,-4.883,0
1539545144.303,25.391,166.016,-365.234,17.578,54.688,0
1539545144.307,20.020,274.902,-251.953,13.184,77.637,0
1539545144.311,22.461,273.926,-256.348,20.508,41.992,0
1539545144.314,24.902,20.508,-505.859,32.227,-3.418,0
1539545144.318,22.461,-164.062,-708.984,22.949,22.949,0
1539545144.322,19.531,165.527,-416.992,11.230,77.148,0
1539545144.326,27.344,359.863,-200.684,8.789,67.383,0
1539545144.330,27.344,145.020,-393.555,31.738,19.043,0
1539545144.334,13.184,118.164,-417.480,36.133,21.973,0
1539545144.338,8.301,321.777,-188.965,15.137,77.637,0
1539545144.342,27.344,287.598,-196.777,17.090,62.988,0
1539545144.346,34.180,62.988,-456.055,14.160,-23.926,0
1539545144.350,30.762,84.473,-467.285,15.137,-9.766,0
1539545144.354,28.809,272.461,-265.137,26.367,69.336,0
1539545144.357,27.344,245.117,-274.414,28.320,62.500,0
1539545144.361,35.645,-30.273,-578.125,26.367,-15.625,0
1539545144.365,33.203,-110.840,-716.797,25.391,-29.785,0
1539545144.369,15.625,166.504,-443.359,29.297,41.016,0
1539545144.373,22.949,169.434,-402.832,35.645,58.105,0
1539545144.377,36.621,-166.016,-764.648,40.039,-21.973,0
1539545144.381,29.785,-31.250,-699.707,28.809,-31.738,0
1539545144.385,26.367,354.980,-285.645,11.230,52.246,0
1539545144.389,23.438,295.898,-270.508,25.391,78.125,0
1539545144.393,19.531,147.949,-416.504,38.086,36.621,0
1539545144.396,17.090,168.945,-418.945,29.297,-4.883,0
1539545144.400,18.555,261.230,-297.363,20.508,21.973,0
1539545144.404,23.438,254.883,-236.816,21.484,79.590,0
1539545144.408,31.250,64.941,-406.738,15.625,57.129,0
1539545144.412,33.203,-61.035,-600.098,15.625,-19.531,0
1539545144.416,24.414,200.195,-367.676,22.949,15.625,0
1539545144.420,27.832,218.262,-287.598,35.156,72.266,0
1539545144.424,30.273,-3.906,-507.812,41.992,63.477,0
1539545144.428,23.438,83.008,-474.609,31.250,14.648,0
1539545144.432,24.414,135.742,-426.758,17.090,-14.160,0
1539545144.436,20.996,241.211,-284.180,17.090,59.570,0
1539545144.439,26.855,300.293,-179.199,23.926,93.750,0
1539545144.443,40.039,210.938,-260.254,28.809,34.668,0
1539545144.447,32.715,136.230,-352.539,39.551,-10.254,0
1539545144.451,23.926,232.910,-233.887,42.480,40.039,0
1539545144.455,33.691,177.246,-250.000,35.645,90.332,0
1539545144.459,31.738,109.863,-351.074,21.973,48.340,0
1539545144.463,32.715,211.426,-286.133,22.461,4.395,0
1539545144.467,48.340,-0.977,-477.051,41.504,2.930,0
1539545144.471,43.945,14.648,-481.934,44.434,40.527,0
1539545144.475,31.250,400.391,-98.633,31.250,82.520,0
1539545144.479,38.574,274.414,-186.035,37.598,40.039,0
1539545144.482,41.504,114.746,-359.375,43.457,-1.465,0
1539545144.486,38.574,168.945,-320.312,32.227,34.668,0
1539545144.490,42.480,273.926,-197.266,40.039,99.609,0
1539545144.494,47.852,192.871,-294.922,53.711,43.457,0
1539545144.498,42.480,102.051,-418.945,55.664,-9.277,0
1539545144.502,34.668,154.297,-358.398,56.152,55.664,0
1539545144.506,35.645,235.352,-275.879,39.551,95.215,0
1539545144.510,43.945,120.605,-388.672,25.879,27.344,0
1539545144.514,39.551,-206.055,-751.953,39.551,-64.453,0
1539545144.518,26.855,148.438,-435.547,40.527,9.277,0
1539545144.521,35.645,441.895,-61.523,41.992,95.703,0
1539545144.525,39.062,179.199,-279.785,57.617,32.715,0
1539545144.529,36.133,78.613,-414.551,59.570,-22.949,0
1539545144.533,37.109,300.781,-176.270,42.480,38.574,0
1539545144.537,40.527,377.930,-35.156,39.551,106.445,0
1539545144.541,43.457,262.695,-135.742,36.133,93.750,0
1539545144.545,47.363,64.941,-378.906,30.762,5.859,0
1539545144.549,47.852,-27.344,-510.742,35.156,-20.020,0
1539545144.553,46.387,93.750,-384.766,38.086,60.059,0
1539545144.557,49.316,-57.129,-521.484,35.645,52.734,0
1539545144.561,42.969,-94.238,-614.746,31.738,-8.301,0
1539545144.564,36.621,266.602,-278.320,38.086,9.766,0
1539545144.568,37.109,329.590,-141.602,42.480,60.547,0
1539545144.572,30.273,242.188,-183.594,44.922,85.938,0
1539545144.576,23.438,196.777,-246.582,47.363,28.809,0
1539545144.580,29.297,197.266,-263.184,51.758,-7.324,0
1539545144.584,34.180,158.203,-271.484,46.875,26.855,0
1539545144.588,30.762,126.465,-290.527,41.016,44.434,0
1539545144.592,36.133,188.477,-241.699,45.410,28.809,0
1539545144.596,41.992,65.918,-378.418,57.129,-0.977,0
1539545144.600,38.574,-60.059,-499.512,62.500,19.043,0
1539545144.604,31.738,-109.863,-561.035,59.570,45.898,0
1539545144.607,27.344,159.668,-340.332,48.340,58.594,0
1539545144.611,27.832,273.926,-224.121,44.434,13.184,0
1539545144.615,27.344,74.707,-419.434,35.156,-31.250,0
1539545144.619,21.973,163.574,-322.754,28.320,38.574,0
1539545144.623,21.484,342.773,-114.746,36.621,91.309,0
1539545144.627,23.926,204.102,-261.230,33.203,14.648,0
1539545144.631,24.414,59.570,-442.383,21.484,-27.832,0
1539545144.635,32.715,171.875,-332.520,31.738,38.086,0
1539545144.639,29.297,331.543,-134.277,45.410,107.422,0
1539545144.643,19.043,149.902,-299.805,43.457,67.871,0
1539545144.646,22.949,-292.480,-788.574,31.250,-41.016,0
1539545144.650,22.949,-170.410,-724.121,26.855,-22.461,0
1539545144.654,18.555,218.262,-344.238,47.852,57.129,0
1539545144.658,20.996,229.004,-288.086,57.129,64.941,0
1539545144.662,25.879,32.715,-484.375,55.176,-4.883,0
1539545144.666,18.555,97.656,-447.754,46.875,-6.348,0
1539545144.670,11.719,373.047,-124.023,37.109,86.914,0
1539545144.674,19.043,250.977,-188.477,31.250,83.008,0
1539545144.678,19.531,45.410,-415.527,30.273,4.883,0
1539545144.682,13.184,129.395,-365.723,37.598,-3.906,0
1539545144.686,13.672,277.832,-185.547,41.504,60.547,0
1539545144.689,9.277,60.547,-359.863,34.668,65.430,0
1539545144.693,11.230,-268.066,-750.977,21.973,-8.301,0
1539545144.697,12.695,13.184,-556.152,5.859,-4.883,0
1539545144.701,20.508,260.742,-284.180,13.184,29.785,0
1539545144.705,21.973,150.879,-346.680,34.668,48.828,0
1539545144.709,18.555,106.934,-388.672,40.039,31.738,0
1539545144.713,15.137,168.457,-341.797,33.203,-21.484,0
1539545144.717,21.973,149.414,-309.570,30.273,11.719,0
1539545144.721,29.785,84.473,-337.402,27.832,52.734,0
1539545144.725,18.555,199.707,-225.098,30.273,55.176,0
1539545144.729,11.230,235.840,-184.570,40.039,22.461,0
1539545144.732,17.578,192.383,-224.609,44.434,3.418,0
1539545144.736,21.973,101.074,-288.574,38.086,48.828,0
1539545144.740,24.902,30.762,-367.676,30.273,66.895,0
1539545144.744,21.973,118.652,-319.824,35.645,20.508,0
1539545144.748,15.137,171.387,-265.137,30.762,-1.953,0
1539545144.752,14.648,-42.969,-449.219,20.996,24.414,0
1539545144.756,16.113,12.207,-422.852,20.996,56.641,0
1539545144.760,18.066,198.730,-264.648,17.578,21.484,0
1539545144.764,15.137,31.250,-437.500,25.879,-40.039,0
1539545144.768,19.043,85.938,-381.348,28.320,22.461,0
1539545144.771,25.879,291.992,-147.461,30.762,101.562,0
1539545144.775,26.855,194.336,-216.309,43.945,75.195,0
1539545144.779,22.949,6.348,-407.715,45.410,11.719,0
1539545144.783,24.414,-58.105,-480.957,40.527,2.441,0
1539545144.787,18.555,38.086,-394.531,38.086,61.523,0
1539545144.791,12.695,221.191,-219.238,37.109,69.824,0
1539545144.795,25.391,4.883,-434.570,34.668,-22.949,0
1539545144.799,26.367,-187.500,-650.879,44.434,-29.785,0
1539545144.803,13.184,178.223,-303.223,47.363,48.340,0
1539545144.807,6.348,333.496,-103.027,37.109,67.871,0
1539545144.811,16.602,137.695,-282.715,32.715,26.855,0
1539545144.814,19.531,82.520,-362.793,26.855,-6.348,0
1539545144.818,11.719,245.117,-186.523,28.809,40.527,0
1539545144.822,19.043,302.246,-85.449,33.203,93.750,0
1539545144.826,22.949,185.547,-188.477,39.062,66.895,0
1539545144.830,26.367,-2.441,-405.762,48.340,5.859,0
1539545144.834,27.832,3.906,-422.363,52.246,22.461,0
1539545144.838,29.785,111.816,-297.852,48.828,81.055,0
1539545144.842,34.668,-110.840,-513.672,53.711,42.969,0
1539545144.846,19.043,-159.668,-631.836,45.410,-30.273,0
1539545144.850,3.418,258.301,-229.004,29.297,23.438,0
1539545144.854,7.812,338.867,-57.617,33.203,107.910,0
1539545144.857,20.508,178.223,-182.617,36.621,90.332,0
1539545144.861,11.230,161.133,-230.469,31.738,25.879,0
1539545144.865,5.859,204.102,-165.527,26.367,47.852,0
1539545144.869,18.066,121.094,-211.426,32.227,79.102,0
1539545144.873,22.949,122.559,-208.008,32.227,83.008,0
1539545144.877,28.809,19.531,-323.730,21.484,49.316,0
1539545144.881,27.832,-52.734,-448.730,23.438,-9.277,0
1539545144.885,23.438,41.016,-351.562,53.711,25.879,0
1539545144.889,23.926,-120.605,-485.840,47.363,65.430,0
1539545144.893,14.648,-24.414,-456.055,15.137,47.852,0
1539545144.896,14.160,187.012,-287.109,30.762,20.020,0
1539545144.900,18.066,125.488,-328.125,51.270,22.461,0
1539545144.904,20.508,166.016,-268.066,68.848,68.359,0
1539545144.908,20.508,247.559,-170.898,84.961,64.453,0
1539545144.912,24.414,131.348,-287.109,129.883,2.441,0
1539545144.916,37.109,99.609,-312.988,183.594,18.066,0
1539545144.920,28.320,204.590,-172.363,353.027,87.891,0
1539545144.924,15.625,79.102,-266.602,687.988,81.543,0
1539545144.928,20.508,-16.113,-389.648,711.914,20.508,0
1539545144.932,25.391,-155.273,-555.664,329.590,-5.371,0
1539545144.936,16.113,-123.047,-562.988,52.734,32.715,0
1539545144.939,6.348,275.391,-181.152,-10.742,82.520,0
1539545144.943,17.090,201.172,-214.355,-49.316,46.875,0
1539545144.947,24.414,-78.125,-470.703,37.109,-2.441,0
1539545144.951,23.438,3.906,-336.914,659.668,47.363,0
1539545144.955,11.719,219.238,-41.992,-961.914,88.379,0
1539545144.959,9.766,58.594,-150.391,978.027,42.480,0
1539545144.963,17.578,-72.266,-290.527,997.070,-0.977,0
1539545144.967,19.531,68.848,-148.438,-999.512,22.949,0
1539545144.971,25.879,39.062,-139.648,999.512,73.242,1
1539545144.975,31.250,-177.246,-341.309,999.512,55.176,0
1539545144.979,33.203,-413.086,-626.953,999.512,-39.551,0
1539545144.982,15.625,-117.676,-395.020,999.512,-9.766,0
1539545144.986,10.254,154.297,-91.309,999.512,54.688,0
1539545144.990,19.043,1.953,-191.406,999.512,56.641,0
1539545144.994,21.973,-99.121,-291.504,999.512,18.555,0
1539545144.998,29.297,-65.918,-273.926,999.512,-17.578,0
1539545145.002,29.785,46.387,-118.652,999.512,53.711,0
1539545145.006,25.879,-20.508,-138.672,999.512,101.074,0
1539545145.010,20.996,-146.973,-289.062,999.512,41.992,0
1539545145.014,28.809,-113.281,-296.875,999.512,-9.277,0
1539545145.018,36.621,-138.672,-321.777,999.512,23.926,0
1539545145.021,41.992,-350.586,-522.461,999.512,49.316,0
1539545145.025,44.434,-357.422,-583.984,999.512,11.230,0
1539545145.029,29.785,-36.621,-333.008,999.512,-13.672,0
1539545145.033,29.785,71.777,-203.613,999.512,28.809,0
1539545145.037,25.879,63.477,-177.734,999.512,90.332,0
1539545145.041,18.066,76.660,-177.734,999.512,70.801,0
1539545145.045,24.414,37.598,-253.906,999.512,-1.465,0
1539545145.049,26.367,-42.480,-347.168,999.512,-16.602,0
1539545145.053,23.438,13.672,-276.367,999.512,54.199,0
1539545145.057,15.625,164.551,-120.117,999.512,98.145,0
1539545145.061,11.719,83.496,-205.078,999.512,33.203,0
1539545145.064,16.602,-168.457,-469.727,999.512,-23.926,0
1539545145.068,15.625,-132.812,-447.266,999.512,39.062,0
1539545145.072,15.137,137.207,-184.082,999.512,96.191,0
1539545145.076,20.020,139.648,-180.664,999.512,53.711,0
1539545145.080,33.203,-135.742,-455.078,999.512,-4.395,0
1539545145.084,27.344,-222.656,-568.848,994.629,14.160,0
1539545145.088,16.113,124.023,-265.137,-998.535,74.707,0
1539545145.092,24.414,208.496,-164.551,-990.723,51.758,0
1539545145.096,30.273,-26.367,-409.180,855.469,-14.648,0
1539545145.100,21.484,-4.395,-400.879,908.691,-2.441,0
1539545145.104,13.672,179.199,-185.059,-975.586,52.246,0
1539545145.107,19.043,201.172,-131.348,990.234,71.289,0
1539545145.111,26.367,-63.965,-393.555,-999.023,-0.977,0
1539545145.115,23.926,-155.273,-517.090,999.512,-23.438,0
1539545145.119,18.555,176.758,-169.434,999.512,77.637,0
1539545145.123,21.973,177.734,-100.098,999.512,101.562,0
1539545145.127,31.738,-229.004,-499.023,999.512,0.000,0
1539545145.131,26.855,-142.578,-462.402,999.512,-26.367,0
1539545145.135,19.531,196.777,-109.375,999.512,30.273,0
1539545145.139,29.785,137.695,-110.840,999.512,60.059,0
1539545145.143,33.203,33.691,-202.148,999.512,48.828,0
1539545145.146,32.227,19.531,-257.324,999.512,-9.277,0
1539545145.150,30.762,117.188,-170.410,999.512,14.160,0
1539545145.154,26.367,130.859,-129.395,999.512,75.684,0
1539545145.158,24.902,-84.961,-350.586,999.512,53.711,0
1539545145.162,28.320,-134.766,-485.352,999.512,-14.648,0
1539545145.166,22.461,139.648,-261.719,999.512,10.742,0
1539545145.170,31.250,49.805,-299.316,999.512,38.574,0
1539545145.174,42.969,-171.387,-518.555,999.512,24.414,0
1539545145.178,37.109,14.160,-386.719,999.512,15.137,0
1539545145.182,36.133,61.035,-333.008,999.512,-16.113,0
1539545145.186,39.062,109.375,-248.047,999.512,26.855,0
1539545145.189,32.227,211.914,-88.867,999.512,82.031,0
1539545145.193,24.414,206.055,-79.590,999.512,39.551,0
1539545145.197,26.855,120.117,-172.852,999.512,-3.906,0
1539545145.201,26.367,107.422,-175.293,999.512,32.227,0
1539545145.205,28.320,110.352,-173.828,999.512,86.914,0
1539545145.209,38.086,41.504,-274.902,999.512,61.523,0
1539545145.213,41.504,10.742,-357.422,999.512,-10.254,0
1539545145.217,37.109,-143.555,-525.391,999.512,-20.020,0
1539545145.221,35.645,0.000,-402.832,999.512,68.848,0
1539545145.225,32.715,346.680,-73.242,999.512,89.355,0
1539545145.229,37.598,180.664,-212.891,999.512,17.090,0
1539545145.232,35.156,103.027,-276.367,999.512,19.531,0
1539545145.236,26.855,135.254,-234.863,999.512,46.875,0
1539545145.240,19.043,164.551,-190.430,999.512,77.148,0
1539545145.244,16.602,93.750,-260.742,999.512,33.203,0
1539545145.248,21.973,36.621,-335.449,999.512,-0.488,0
1539545145.252,26.367,96.191,-278.809,999.512,50.293,0
1539545145.256,29.297,60.059,-322.754,999.512,60.547,0
1539545145.260,27.832,-25.879,-408.691,999.512,15.137,0
1539545145.264,28.809,-208.496,-610.840,999.512,-38.574,0
1539545145.268,22.949,74.707,-375.488,999.512,0.000,0
1539545145.271,23.926,372.070,-36.621,999.512,81.543,0
1539545145.275,38.574,199.707,-167.969,999.512,62.500,0
1539545145.279,38.086,48.828,-346.191,999.512,-14.648,0
1539545145.283,29.297,244.141,-141.602,999.512,24.414,0
1539545145.287,33.691,171.875,-147.949,999.512,58.594,0
1539545145.291,32.227,52.246,-240.234,996.582,58.105,0
1539545145.295,40.039,2.930,-303.711,-999.512,14.648,0
1539545145.299,41.504,-85.449,-412.109,980.957,-14.160,0
1539545145.303,34.668,39.062,-299.316,876.953,50.781,0
1539545145.307,44.922,-120.117,-435.547,752.441,61.523,0
1539545145.311,40.527,-217.285,-588.867,621.582,-14.648,0
1539545145.314,21.484,119.141,-315.918,587.402,-20.020,0
1539545145.318,28.809,243.164,-126.953,682.617,54.688,0
1539545145.322,29.785,134.766,-187.988,733.887,70.801,0
1539545145.326,17.090,142.090,-197.266,707.031,39.062,0
1539545145.330,27.344,162.598,-188.477,638.672,9.277,0
1539545145.334,37.598,74.707,-254.883,584.473,20.020,0
1539545145.338,32.715,68.848,-238.770,511.719,65.430,0
1539545145.342,28.809,117.188,-189.941,376.465,59.570,0
1539545145.346,25.391,-58.594,-380.371,242.676,1.953,0
1539545145.350,25.391,-204.102,-536.133,155.762,-1.465,0
1539545145.354,18.066,-111.328,-453.613,158.203,47.852,0
1539545145.357,27.832,142.578,-199.219,190.918,90.332,0
1539545145.361,36.621,163.574,-171.875,213.379,42.480,0
1539545145.365,30.273,-96.191,-418.457,261.719,0.977,0
1539545145.369,30.273,-236.328,-566.895,322.266,35.645,0
1539545145.373,20.020,96.191,-279.785,393.555,85.449,0
1539545145.377,23.438,202.637,-158.203,441.406,68.359,0
1539545145.381,31.250,-16.113,-372.559,485.840,10.742,0
1539545145.385,29.297,30.762,-319.336,558.594,43.945,0
1539545145.389,26.855,182.129,-133.789,596.191,95.703,0
1539545145.393,28.320,-8.301,-301.758,591.797,47.852,0
1539545145.396,41.504,-468.750,-774.414,586.914,-67.871,0
1539545145.400,35.156,-333.008,-678.223,523.438,-29.785,0
1539545145.404,22.949,170.898,-177.734,371.094,74.707,0
1539545145.408,41.504,132.324,-173.828,201.172,63.477,0
1539545145.412,44.922,-146.973,-469.238,73.242,-6.348,0
1539545145.416,32.227,-18.555,-382.324,59.082,19.043,0
1539545145.420,27.344,186.523,-165.039,144.531,67.383,0
1539545145.424,26.855,113.770,-215.332,208.496,71.777,0
1539545145.428,34.180,-41.504,-393.066,290.039,18.066,0
1539545145.432,36.133,-36.133,-431.152,407.715,-30.273,0
1539545145.436,35.156,141.602,-230.957,460.449,41.016,0
1539545145.439,36.621,-3.418,-307.129,460.449,81.543,0
1539545145.443,42.969,-335.938,-651.367,432.617,12.695,0
1539545145.447,36.621,-138.184,-528.809,416.992,-29.297,0
1539545145.451,28.320,170.410,-197.754,413.086,23.438,0
1539545145.455,22.949,124.023,-172.852,444.336,80.566,0
1539545145.459,23.926,35.645,-250.000,443.359,55.664,0
1539545145.463,27.832,107.910,-203.125,451.172,15.625,0
1539545145.467,20.996,62.988,-217.773,515.137,29.785,0
1539545145.471,21.484,-0.488,-250.488,565.430,77.637,0
1539545145.475,29.785,68.848,-195.312,569.336,69.336,0
1539545145.479,26.367,43.945,-261.719,393.066,-1.465,0
1539545145.482,26.855,95.703,-228.027,153.320,20.020,0
1539545145.486,35.156,0.000,-308.105,45.410,52.246,0
1539545145.490,32.227,-68.848,-391.113,-117.188,59.570,0
1539545145.494,28.809,79.102,-272.949,-353.027,32.227,0
1539545145.498,31.250,37.109,-304.688,-404.785,-12.207,0
1539545145.502,33.691,-158.203,-463.379,-295.410,17.578,0
1539545145.506,27.832,-9.277,-331.543,-283.691,51.758,0
1539545145.510,27.344,208.496,-138.184,-295.410,27.344,0
1539545145.514,31.250,112.793,-225.586,-136.719,1.953,0
1539545145.518,30.762,95.215,-224.609,75.195,32.227,0
1539545145.521,23.438,251.465,-54.199,270.508,78.125,0
1539545145.525,31.738,206.055,-69.336,492.676,78.125,0
1539545145.529,40.527,-80.078,-356.934,631.836,4.395,0
1539545145.533,35.156,-118.652,-418.457,724.121,-8.301,0
1539545145.537,26.367,67.383,-235.352,718.262,70.801,0
1539545145.541,15.137,293.457,-10.742,633.789,108.398,0
1539545145.545,22.949,45.410,-230.469,717.285,8.789,0
1539545145.549,33.203,-274.902,-552.734,896.973,-46.387,0
1539545145.553,24.414,116.699,-185.547,989.258,50.781,0
1539545145.557,14.648,340.332,84.473,-997.559,104.492,0
1539545145.561,13.184,88.379,-147.949,963.867,43.457,0
1539545145.564,24.414,20.020,-261.719,787.109,8.301,0
1539545145.568,20.020,199.219,-98.633,652.344,60.547,0
1539545145.572,14.160,188.477,-83.984,678.223,76.172,0
1539545145.576,16.602,26.855,-224.121,846.191,51.270,0
1539545145.580,15.625,-150.879,-411.133,986.328,2.930,0
1539545145.584,18.555,-103.027,-373.535,998.047,20.508,0
1539545145.588,16.602,0.488,-254.395,996.094,77.637,0
1539545145.592,25.391,-285.645,-523.926,-1000.000,16.113,0
1539545145.596,29.785,-280.273,-567.383,999.512,-26.855,0
1539545145.600,19.531,158.203,-153.809,999.512,34.180,0
1539545145.604,26.367,180.664,-65.918,999.512,81.543,0
1539545145.607,25.391,41.992,-175.293,999.512,73.242,0
1539545145.611,28.809,32.227,-216.309,999.512,21.973,0
1539545145.615,38.086,87.402,-169.434,999.512,13.184,0
1539545145.619,25.391,38.574,-181.152,999.512,49.805,0
1539545145.623,21.484,14.648,-190.430,999.512,77.148,0
1539545145.627,33.203,-86.426,-321.289,999.512,22.949,0
1539545145.631,30.273,-160.156,-450.684,999.512,-18.066,0
1539545145.635,29.297,-98.145,-394.531,999.512,22.949,0
1539545145.639,32.715,-211.426,-495.605,999.512,45.898,0
1539545145.643,26.855,-56.641,-384.766,999.512,59.082,0
1539545145.646,21.973,65.918,-285.156,999.512,20.508,0
1539545145.650,18.555,-56.641,-387.207,999.512,-3.906,0
1539545145.654,20.020,-7.812,-314.941,999.512,43.945,0
1539545145.658,24.414,146.484,-144.043,999.512,75.195,0
1539545145.662,36.133,24.414,-260.254,999.512,8.789,0
1539545145.666,32.715,-17.578,-305.176,999.512,14.160,0
1539545145.670,21.973,53.711,-222.168,999.512,63.477,0
1539545145.674,36.621,-107.910,-383.301,999.512,35.645,0
1539545145.678,43.945,-159.668,-474.121,999.512,-0.488,0
1539545145.682,36.133,-337.402,-669.434,999.512,-49.805,0
1539545145.686,30.273,-283.691,-629.395,999.512,1.953,0
1539545145.689,21.484,158.203,-202.637,999.512,76.660,0
1539545145.693,25.391,96.191,-234.863,999.512,41.504,0
1539545145.697,37.598,-113.281,-432.129,999.512,-13.184,0
1539545145.701,34.668,-117.188,-437.988,999.512,4.883,0
1539545145.705,32.227,117.188,-189.453,999.512,83.496,0
1539545145.709,40.039,30.762,-247.070,-1000.000,58.594,0
1539545145.713,35.156,-169.922,-467.773,995.605,-24.414,0
1539545145.717,25.879,24.414,-288.574,-993.652,9.766,0
1539545145.721,32.227,35.156,-236.328,979.980,76.172,0
1539545145.725,38.086,-196.777,-443.848,927.246,46.387,0
1539545145.729,40.039,-403.809,-664.551,976.562,-24.414,0
1539545145.732,33.691,-161.621,-460.449,-994.629,-18.066,0
1539545145.736,28.320,183.594,-79.102,996.094,76.172,0
1539545145.740,40.039,28.809,-171.875,999.512,75.684,0
1539545145.744,40.039,-108.398,-318.359,999.512,8.301,0
1539545145.748,24.902,-10.742,-234.375,999.512,-8.789,0
1539545145.752,15.625,65.430,-124.512,999.512,30.273,0
1539545145.756,25.391,9.277,-130.371,999.512,76.660,0
1539545145.760,24.414,-156.250,-308.105,999.512,20.020,0
1539545145.764,13.184,-112.305,-314.453,999.512,-36.133,0
1539545145.768,23.438,-84.961,-279.297,-1000.000,7.812,0
1539545145.771,24.414,-301.758,-470.215,997.070,39.551,0
1539545145.775,20.996,-321.289,-541.992,-997.559,-2.441,0
1539545145.779,24.902,19.043,-280.273,990.234,-14.160,0
1539545145.783,28.320,62.988,-226.562,936.035,2.930,0
1539545145.787,25.391,0.000,-262.695,928.711,39.551,0
1539545145.791,22.949,129.395,-124.023,894.531,83.008,0
1539545145.795,24.414,70.312,-188.477,838.867,12.695,0
1539545145.799,28.809,-80.566,-333.984,859.375,-28.809,0
1539545145.803,32.227,-39.551,-268.555,876.465,36.621,0
1539545145.807,28.809,86.914,-137.695,916.504,72.266,0
1539545145.811,27.832,69.824,-164.062,848.145,34.668,0
1539545145.814,28.809,-228.516,-475.098,770.020,-36.621,0
1539545145.818,26.855,-382.324,-657.715,373.047,1.953,0
1539545145.822,22.949,-17.578,-388.672,-706.543,70.312,0
1539545145.826,24.902,153.320,-255.859,-1000.000,32.715,0
1539545145.830,31.250,-118.652,-506.836,-925.293,-46.387,0
1539545145.834,27.344,-118.164,-499.023,-976.562,-30.762,0
1539545145.838,24.902,135.254,-216.309,-969.238,45.898,0
1539545145.842,22.949,158.203,-150.391,-969.238,52.734,0
1539545145.846,20.020,-45.898,-347.656,-969.238,-16.113,0
1539545145.850,23.438,-76.172,-382.324,-969.238,-22.949,0
1539545145.854,21.973,112.793,-166.504,-969.238,47.363,0
1539545145.857,21.484,167.480,-70.801,-969.238,82.031,0
1539545145.861,34.668,-172.363,-422.852,-969.238,-20.508,0
1539545145.865,35.156,-330.078,-650.391,-969.238,-68.359,0
1539545145.869,27.832,46.387,-298.340,-969.238,41.016,0
1539545145.873,37.109,89.355,-219.727,-969.238,74.219,0
1539545145.877,45.898,-299.316,-622.070,-969.238,-18.066,0
1539545145.881,34.180,-196.289,-586.426,-969.238,-42.480,0
1539545145.885,25.879,180.664,-200.195,-970.703,19.043,0
1539545145.889,30.273,200.684,-106.445,-958.496,77.637,0
1539545145.893,35.156,99.609,-172.363,-986.816,63.477,0
1539545145.896,42.969,48.340,-243.164,-924.805,-8.789,0
1539545145.900,38.086,187.988,-76.660,-708.008,37.598,0
1539545145.904,40.527,205.566,7.812,-859.375,107.910,0
1539545145.908,45.410,-26.855,-220.215,-1000.000,73.730,0
1539545145.912,44.434,-87.891,-331.543,-956.055,9.277,0
1539545145.916,40.527,149.902,-115.723,-970.703,30.762,0
1539545145.920,41.992,96.191,-113.281,-969.238,72.266,0
1539545145.924,53.711,-199.707,-406.738,-969.238,45.410,0
1539545145.928,40.527,5.859,-278.809,-969.238,22.461,0
1539545145.932,33.203,85.449,-204.590,-969.238,14.160,0
1539545145.936,37.109,29.297,-241.699,-969.238,40.039,0
1539545145.939,28.320,125.000,-145.996,-969.238,62.500,0
1539545145.943,30.273,155.273,-124.512,-969.238,26.367,0
1539545145.947,32.715,71.289,-216.309,-969.238,-26.367,0
1539545145.951,32.715,35.645,-242.188,-969.238,-7.324,0
1539545145.955,33.691,27.832,-239.746,-969.238,49.805,0
1539545145.959,21.973,21.484,-257.812,-969.238,58.105,0
1539545145.963,19.043,32.227,-283.691,-969.238,-0.488,0
1539545145.967,26.367,-127.930,-439.453,-969.238,-11.230,0
1539545145.971,18.066,-19.043,-338.867,-969.238,66.406,0
1539545145.975,20.020,336.426,3.418,-969.238,85.938,0
1539545145.979,28.809,146.973,-166.504,-969.238,-0.977,0
1539545145.982,16.602,71.289,-250.977,-969.238,-0.977,0
1539545145.986,19.531,197.754,-109.375,-969.238,69.336,0
1539545145.990,26.367,231.445,-59.570,-969.238,90.332,0
1539545145.994,23.926,140.137,-164.551,-969.238,29.297,0
1539545145.998,22.949,38.086,-283.203,-969.238,-21.484,0
1539545146.002,17.090,80.566,-229.980,-969.238,21.973,0
1539545146.006,17.578,98.145,-208.008,-969.238,55.664,0
1539545146.010,27.832,43.945,-260.742,-969.238,26.367,0
1539545146.014,35.645,-243.164,-582.031,-969.238,-69.824,0
1539545146.018,29.297,52.246,-352.051,-969.238,-21.484,0
1539545146.021,21.973,391.113,21.484,-969.238,73.242,0
1539545146.025,32.715,204.590,-130.371,-969.238,45.410,0
1539545146.029,33.691,86.426,-274.902,-969.238,-15.137,0
1539545146.033,27.832,220.703,-146.973,-969.238,-4.395,0
1539545146.037,29.785,303.711,-25.879,-969.238,56.641,0
1539545146.041,31.250,260.742,-49.316,-969.238,73.730,0
1539545146.045,31.738,103.516,-216.797,-969.238,20.508,0
1539545146.049,31.250,-17.578,-357.422,-969.238,-18.066,0
1539545146.053,31.738,84.961,-251.465,-969.238,41.016,0
1539545146.057,30.273,-37.598,-340.820,-969.238,62.012,0
1539545146.061,21.484,-52.246,-380.859,-969.238,18.066,0
1539545146.064,16.602,229.980,-139.160,-969.238,-10.254,0
1539545146.068,21.973,277.832,-41.016,-969.238,25.879,0
1539545146.072,23.926,219.238,-59.570,-969.238,63.965,0
1539545146.076,23.438,240.234,-61.523,-969.238,43.945,0
1539545146.080,24.902,247.559,-83.496,-969.238,6.348,0
1539545146.084,23.438,200.684,-116.699,-969.238,29.785,0
1539545146.088,27.344,141.113,-175.781,-969.238,43.457,0
1539545146.092,24.414,247.070,-87.402,-969.238,55.664,0
1539545146.096,24.414,77.637,-264.160,-969.238,7.324,0
1539545146.100,22.461,-193.848,-562.012,-969.238,-51.758,0
1539545146.104,22.461,-212.891,-609.375,-969.238,-6.348,0
1539545146.107,20.020,126.465,-311.035,-969.238,49.316,0
1539545146.111,22.461,291.992,-141.602,-969.238,18.555,0
1539545146.115,37.109,88.867,-321.777,-969.238,-24.414,0
1539545146.119,36.133,171.875,-213.867,-969.238,41.504,0
1539545146.123,39.062,358.887,5.859,-969.238,88.379,0
1539545146.127,40.527,258.789,-68.359,-968.262,23.438,0
1539545146.131,30.762,73.242,-260.254,-968.750,-37.598,0
1539545146.135,25.391,172.363,-165.527,-967.773,24.414,0
1539545146.139,9.277,358.398,47.852,-936.523,104.492,0
1539545146.143,6.348,181.152,-121.582,-860.352,70.801,0
1539545146.146,14.648,-263.184,-615.723,-836.426,-24.414,0
1539545146.150,12.695,-181.152,-618.652,-824.219,-0.977,0
1539545146.154,1.953,330.566,-138.184,-745.605,107.910,0
1539545146.158,9.766,335.938,-92.773,-692.871,110.840,0
1539545146.162,21.973,75.684,-349.609,-683.105,36.133,0
1539545146.166,19.043,108.887,-323.242,-621.582,16.113,0
1539545146.170,13.184,295.898,-76.660,-481.934,67.871,0
1539545146.174,12.695,221.680,-79.102,-458.008,74.707,0
1539545146.178,10.742,53.223,-237.305,-441.406,15.625,0
1539545146.182,5.859,112.305,-191.406,-320.801,-11.719,0
1539545146.186,10.254,260.742,-13.184,-328.613,39.062,0
1539545146.189,15.137,89.844,-140.137,-378.906,66.406,0
1539545146.193,18.555,-252.441,-520.996,-317.383,-0.977,0
1539545146.197,13.672,-33.203,-398.438,-321.777,-24.414,0
1539545146.201,20.020,296.387,-62.500,-172.852,36.133,0
1539545146.205,22.461,296.387,39.551,584.473,112.305,0
1539545146.209,19.531,202.148,8.301,-965.332,86.914,0
1539545146.213,30.762,171.875,-48.828,973.145,-6.836,0
1539545146.217,33.691,145.020,-65.918,972.656,3.906,0
1539545146.221,25.391,113.281,-92.773,591.797,73.730,0
1539545146.225,21.484,205.078,-41.016,182.129,86.914,0
1539545146.229,27.344,179.199,-111.816,68.848,15.625,0
1539545146.232,34.180,156.738,-158.691,-69.824,1.465,0
1539545146.236,32.715,29.785,-259.277,83.496,36.621,0
1539545146.240,26.855,9.766,-255.371,703.613,73.242,0
1539545146.244,33.691,145.996,-126.465,-980.469,27.832,0
1539545146.248,36.133,173.340,-93.262,981.934,-11.230,0
1539545146.252,36.621,-22.949,-252.930,996.582,25.391,0
1539545146.256,33.691,75.195,-160.156,-999.512,85.449,0
1539545146.260,26.855,309.082,61.523,999.512,70.312,0
1539545146.264,29.297,112.305,-138.184,999.512,-10.742,0
1539545146.268,28.809,65.430,-196.777,999.512,3.418,0
1539545146.271,23.438,275.391,2.441,999.512,75.195,0
1539545146.275,26.367,208.496,-51.758,999.512,61.523,0
1539545146.279,38.574,-113.281,-388.672,999.512,-24.902,0
1539545146.283,36.621,-142.578,-459.961,999.512,-34.180,0
1539545146.287,28.809,35.156,-293.457,999.512,34.668,0
1539545146.291,23.438,278.320,-46.875,999.512,76.172,0
1539545146.295,25.879,69.336,-228.516,999.512,-9.766,0
1539545146.299,29.785,-187.500,-486.816,999.512,-35.645,0
1539545146.303,18.066,226.074,-96.191,999.512,71.777,0
1539545146.307,23.926,418.457,140.625,999.512,103.027,1
1539545146.311,31.250,160.645,-89.355,999.512,33.203,0
1539545146.314,25.879,92.773,-177.734,999.512,-3.906,0
1539545146.318,25.879,291.504,31.738,999.512,52.246,0
1539545146.322,28.320,290.039,55.176,999.512,68.848,0
1539545146.326,26.855,154.785,-83.496,999.512,37.598,0
1539545146.330,29.785,-69.336,-340.332,999.512,-29.297,0
1539545146.334,32.715,-70.312,-378.906,999.512,-21.484,0
1539545146.338,33.691,104.004,-205.566,999.512,67.383,0
1539545146.342,42.969,-96.680,-399.902,999.512,46.387,0
1539545146.346,32.715,-122.559,-483.398,999.512,-15.137,0
1539545146.350,22.461,250.000,-152.832,999.512,4.395,0
1539545146.354,32.715,285.645,-62.500,999.512,47.852,0
1539545146.357,37.598,175.293,-139.160,999.512,53.223,0
1539545146.361,32.715,185.547,-149.902,999.512,9.277,0
1539545146.365,30.273,246.582,-88.867,999.512,3.418,0
1539545146.369,31.250,248.047,-41.016,999.512,66.406,0
1539545146.373,32.227,188.965,-71.777,999.512,78.125,0
1539545146.377,30.762,30.273,-245.605,999.512,22.949,0
1539545146.381,32.227,-10.254,-333.496,-1000.000,-21.484,0
1539545146.385,35.645,68.359,-253.418,991.699,12.207,0
1539545146.389,36.133,-57.129,-353.516,-991.699,60.059,0
1539545146.393,34.180,37.598,-325.195,937.988,42.480,0
1539545146.396,31.250,178.711,-250.488,704.102,-4.883,0
1539545146.400,26.367,201.172,-214.844,535.156,33.691,0
1539545146.404,14.160,239.746,-155.273,391.602,86.914,0
1539545146.408,12.207,299.805,-104.004,221.191,70.312,0
1539545146.412,22.461,230.957,-181.152,121.094,29.297,0
1539545146.416,29.297,140.137,-281.250,51.758,17.578,0
1539545146.420,29.785,173.828,-244.141,6.836,46.875,0
1539545146.424,32.715,80.078,-329.590,-92.773,56.152,0
1539545146.428,35.156,3.906,-447.266,-234.375,6.348,0
1539545146.432,36.621,-161.621,-638.672,-272.461,-40.527,0
1539545146.436,25.879,-83.496,-573.730,-280.762,21.484,0
1539545146.439,16.113,346.680,-142.090,-310.059,89.844,0
1539545146.443,27.832,263.184,-186.523,-333.496,45.410,0
1539545146.447,29.785,99.121,-344.727,-367.676,19.043,0
1539545146.451,24.414,172.363,-264.160,-351.074,65.430,0
1539545146.455,28.809,308.594,-109.375,-323.242,98.145,0
1539545146.459,25.879,230.957,-163.574,-288.574,72.266,0
1539545146.463,22.461,38.574,-375.000,-185.547,1.953,0
1539545146.467,17.090,169.434,-264.160,-177.734,20.508,0
1539545146.471,16.602,257.812,-133.789,-220.215,111.816,0
1539545146.475,24.902,28.320,-346.680,-180.176,86.426,0
1539545146.479,29.297,-231.445,-665.527,-144.531,-11.230,0
1539545146.482,28.320,41.992,-458.496,-79.102,2.930,0
1539545146.486,32.227,355.469,-104.492,-2.441,74.707,0
1539545146.490,29.297,200.684,-201.172,55.176,70.801,0
1539545146.494,23.926,101.074,-297.852,180.176,27.344,0
1539545146.498,29.297,151.367,-255.371,244.141,-7.812,0
1539545146.502,31.250,196.289,-201.660,-145.020,22.949,0
1539545146.506,25.879,177.246,-214.844,-655.273,80.078,0
1539545146.510,32.227,10.254,-409.180,-841.797,47.852,0
1539545146.514,33.691,10.254,-466.797,-905.273,-16.113,0
1539545146.518,25.879,49.316,-416.992,-566.406,10.742,0
1539545146.521,30.762,-123.535,-525.391,-166.504,67.871,0
1539545146.525,34.180,-105.469,-534.668,-464.844,55.664,0
1539545146.529,35.156,147.461,-362.793,-866.211,11.719,0
1539545146.533,42.480,168.457,-328.125,-865.234,15.137,0
1539545146.537,38.086,124.023,-322.754,-583.008,60.059,0
1539545146.541,27.832,227.051,-178.223,-163.086,90.820,0
1539545146.545,19.531,218.750,-148.926,196.289,39.551,0
1539545146.549,20.508,41.016,-288.574,498.535,-22.461,0
1539545146.553,21.484,-43.945,-331.543,679.688,13.672,0
1539545146.557,22.949,95.703,-180.664,777.344,62.012,0
1539545146.561,27.344,161.621,-114.746,708.496,36.621,0
1539545146.564,15.625,-114.258,-371.582,665.527,-8.789,0
1539545146.568,15.625,-309.082,-555.664,782.227,19.531,0
1539545146.572,20.020,50.781,-236.328,604.492,92.773,0
1539545146.576,17.578,250.488,-27.832,342.773,83.984,0
1539545146.580,21.973,-44.434,-300.293,153.320,5.371,0
1539545146.584,21.484,-71.777,-331.543,23.926,12.695,0
1539545146.588,21.973,128.418,-116.211,-68.848,69.336,0
1539545146.592,20.508,135.254,-85.449,-138.184,79.590,0
1539545146.596,28.809,-55.664,-288.574,-5.371,20.996,0
1539545146.600,35.156,-104.004,-350.098,359.863,-0.977,0
1539545146.604,28.320,42.969,-187.500,192.871,48.340,0
1539545146.607,29.297,88.379,-153.320,-518.555,76.660,0
1539545146.611,44.922,-168.457,-457.031,-895.508,10.742,0
1539545146.615,44.434,-358.887,-700.684,-958.496,-44.922,0
1539545146.619,37.109,-41.504,-389.160,-964.844,33.203,0
1539545146.623,41.016,45.410,-247.070,-968.750,71.289,0
1539545146.627,42.480,-367.188,-633.301,-969.727,-14.648,0
1539545146.631,46.875,-313.965,-639.160,-969.238,-53.711,0
1539545146.635,48.340,147.461,-174.805,-969.238,43.457,0
1539545146.639,51.270,129.883,-114.258,-970.703,77.148,0
1539545146.643,53.711,-32.227,-252.441,-950.195,32.715,0
1539545146.646,59.082,-37.598,-287.109,-988.281,-12.207,0
1539545146.650,52.734,76.172,-165.039,-782.227,20.996,0
1539545146.654,39.551,99.609,-54.688,-169.434,100.098,0
1539545146.658,38.086,-110.352,-189.453,581.055,82.520,0
1539545146.662,39.062,-239.746,-328.125,-989.746,-10.254,0
1539545146.666,31.738,-52.246,-156.250,986.328,-12.695,0
1539545146.670,33.203,-62.988,-107.422,992.188,29.785,0
1539545146.674,41.016,-240.723,-246.582,-998.047,56.152,0
1539545146.678,43.945,-45.898,-83.496,-998.047,39.062,0
1539545146.682,47.363,-8.301,-35.645,977.539,6.348,0
1539545146.686,40.527,-21.973,-12.207,-980.469,55.664,0
1539545146.689,43.945,55.664,80.078,852.051,77.637,0
1539545146.693,48.828,83.008,72.266,129.395,41.992,0
1539545146.697,39.551,8.789,-49.805,-285.645,-0.977,0
1539545146.701,40.527,-21.484,-71.289,-2.930,22.949,0
1539545146.705,49.316,-62.988,-77.637,388.184,62.988,0
1539545146.709,52.246,-110.352,-130.859,498.535,58.594,0
1539545146.713,50.781,-82.520,-149.902,369.141,7.324,0
1539545146.717,49.805,-271.973,-346.680,271.484,-18.066,0
1539545146.721,40.527,-175.293,-261.719,231.445,58.594,0
1539545146.725,29.785,225.098,119.629,244.629,94.727,0
1539545146.729,37.109,61.035,-33.691,259.277,11.230,0
1539545146.732,36.621,-6.348,-114.746,239.746,18.066,0
1539545146.736,30.273,118.652,12.207,202.148,85.449,0
1539545146.740,33.203,107.422,5.371,177.734,92.285,0
1539545146.744,28.320,4.395,-106.445,144.531,37.598,0
1539545146.748,23.438,-93.750,-218.262,113.281,-12.695,0
1539545146.752,23.438,-107.422,-223.633,151.855,22.949,0
1539545146.756,21.484,1.465,-106.445,127.930,81.055,0
1539545146.760,31.738,-29.297,-126.953,5.859,53.223,0
1539545146.764,31.738,-366.699,-489.258,-36.621,-24.902,0
1539545146.768,10.742,-48.340,-229.004,-22.461,37.109,0
1539545146.771,9.277,224.121,75.195,7.324,92.773,0
1539545146.775,14.160,-9.277,-129.883,-173.828,44.434,0
1539545146.779,14.160,-128.906,-284.180,-449.707,-15.137,0
1539545146.783,9.766,13.672,-148.926,-322.754,1.465,0
1539545146.787,9.277,97.656,-11.719,-158.691,58.105,0
1539545146.791,17.090,15.625,-67.383,-270.996,60.547,0
1539545146.795,21.484,-173.828,-284.668,-349.609,-11.719,0
1539545146.799,21.973,-300.781,-437.500,-306.152,-45.898,0
1539545146.803,18.066,-171.875,-311.035,-260.254,29.297,0
1539545146.807,24.414,-252.930,-365.723,-298.828,52.246,0
1539545146.811,24.414,-288.574,-445.312,-460.938,3.418,0
1539545146.814,6.836,13.672,-209.961,-587.891,-24.902,0
1539545146.818,0.000,88.379,-98.633,-635.742,13.672,0
1539545146.822,9.766,61.523,-80.566,-574.707,69.336,0
1539545146.826,15.137,74.707,-82.031,-520.996,43.457,0
1539545146.830,19.043,31.250,-155.762,-545.898,-23.926,0
1539545146.834,21.484,9.766,-163.574,-559.570,13.672,0
1539545146.838,25.391,20.508,-127.930,-554.688,69.336,0
1539545146.842,25.391,86.426,-63.477,-559.570,64.453,0
1539545146.846,23.926,-84.961,-257.324,-607.910,0.000,0
1539545146.850,31.738,-250.000,-449.707,-672.852,-15.625,0
1539545146.854,31.250,-302.734,-529.297,-682.617,28.809,0
1539545146.857,15.137,-15.137,-299.805,-700.195,63.965,0
1539545146.861,6.836,196.777,-94.727,-651.367,45.410,0
1539545146.865,20.996,-3.906,-270.020,-437.012,-2.441,0
1539545146.869,24.902,43.457,-200.195,-287.109,41.504,0
1539545146.873,17.578,201.172,-22.461,-257.324,79.590,0
1539545146.877,17.578,103.027,-121.582,-228.027,23.438,0
1539545146.881,20.020,-76.660,-333.496,-183.594,-38.086,0
1539545146.885,22.461,37.109,-228.027,-101.562,22.461,0
1539545146.889,9.766,202.637,-25.391,-10.742,95.703,0
1539545146.893,15.137,-11.230,-226.074,42.480,48.828,0
1539545146.896,25.879,-408.691,-657.227,71.289,-44.922,0
1539545146.900,21.484,-307.129,-608.887,123.047,-23.438,0
1539545146.904,13.672,173.828,-144.531,193.848,67.383,0
1539545146.908,14.648,198.242,-69.824,233.398,73.242,0
1539545146.912,35.156,-78.613,-350.586,215.820,-12.695,0
1539545146.916,36.133,-20.508,-328.613,186.523,-20.508,0
1539545146.920,16.113,211.426,-74.707,174.316,56.152,0
1539545146.924,17.578,172.363,-65.918,162.598,83.984,0
1539545146.928,24.902,2.441,-239.746,160.645,32.715,0
1539545146.932,21.484,11.719,-270.996,170.410,-8.301,0
1539545146.936,23.438,157.715,-107.422,206.543,43.457,0
1539545146.939,28.809,-21.973,-244.141,226.074,64.941,0
1539545146.943,30.273,-354.004,-609.863,215.332,4.883,0
1539545146.947,27.344,-164.062,-515.137,201.660,-25.879,0
1539545146.951,17.578,121.094,-236.816,239.746,10.254,0
1539545146.955,14.160,112.305,-190.430,273.926,74.219,0
1539545146.959,11.719,75.684,-218.262,242.188,68.359,0
1539545146.963,8.301,85.449,-237.305,216.309,0.000,0
1539545146.967,17.090,102.051,-206.055,233.887,12.207,0
1539545146.971,27.832,125.977,-130.859,254.395,95.215,0
1539545146.975,32.227,23.926,-220.215,225.586,75.684,0
1539545146.979,27.832,0.977,-280.273,172.363,9.277,0
1539545146.982,20.508,118.164,-159.180,167.480,23.438,0
1539545146.986,29.297,-56.641,-282.715,185.547,43.457,0
1539545146.990,24.414,-134.766,-368.652,134.277,50.781,0
1539545146.994,15.137,32.715,-237.793,58.105,22.461,0
1539545146.998,22.461,33.691,-234.863,43.457,-18.066,0
1539545147.002,28.320,-224.609,-464.355,84.961,-10.254,0
1539545147.006,19.531,-137.695,-392.578,138.184,47.852,0
1539545147.010,12.695,160.156,-112.793,176.270,54.199,0
1539545147.014,21.973,-23.926,-284.668,210.449,-22.949,0
1539545147.018,27.832,-106.445,-369.629,247.070,-7.812,0
1539545147.021,27.832,125.000,-147.461,256.836,66.406,0
1539545147.025,39.551,74.707,-182.617,258.789,44.434,0
1539545147.029,45.898,-217.773,-489.258,323.242,-33.203,0
1539545147.033,39.551,-229.980,-520.020,416.992,-21.484,0
1539545147.037,31.738,-132.324,-416.504,500.977,32.715,0
1539545147.041,33.203,73.730,-214.844,532.227,66.895,0
1539545147.045,50.781,-86.914,-355.957,545.410,3.906,0
1539545147.049,47.852,-367.676,-645.508,533.203,-33.691,0
1539545147.053,24.414,-24.902,-346.680,507.324,36.621,0
1539545147.057,29.297,159.180,-128.418,543.945,62.500,0
1539545147.061,34.668,-20.996,-257.812,540.527,38.086,0
1539545147.064,34.668,-77.148,-327.637,509.277,8.301,0
1539545147.068,42.969,60.547,-187.012,559.570,30.762,0
1539545147.072,40.039,113.770,-94.238,555.664,71.777,0
1539545147.076,40.039,-7.324,-189.453,504.395,54.199,0
1539545147.080,42.969,-208.496,-398.438,434.570,-0.488,0
1539545147.084,39.551,-187.500,-396.973,265.625,15.137,0
1539545147.088,30.762,-102.539,-316.895,35.156,56.641,0
1539545147.092,33.691,-331.055,-548.828,-216.309,21.484,0
1539545147.096,25.879,-352.539,-637.695,-269.043,-33.691,0
1539545147.100,15.625,66.895,-262.207,-149.414,10.254,0
1539545147.104,25.391,145.996,-120.605,-9.277,74.707,0
1539545147.107,21.484,66.406,-168.945,-67.871,92.285,0
1539545147.111,19.043,40.039,-234.863,-353.516,36.621,0
1539545147.115,19.043,24.902,-273.926,-435.547,-6.348,0
1539545147.119,22.461,7.812,-259.277,-412.598,38.574,0
1539545147.123,28.320,31.738,-208.008,-377.930,85.938,0
1539545147.127,31.738,-109.375,-364.258,-277.832,32.715,0
1539545147.131,33.691,-175.781,-486.328,-86.426,-28.809,0
1539545147.135,14.160,-69.824,-372.559,220.703,10.742,0
1539545147.139,5.859,-192.871,-478.027,286.133,40.527,0
1539545147.143,-6.836,-61.035,-418.457,136.230,40.039,0
1539545147.146,-18.066,68.359,-362.793,97.656,9.277,0
1539545147.150,-17.090,120.605,-367.188,142.090,18.555,0
1539545147.154,-20.996,236.816,-283.691,168.945,67.383,0
1539545147.158,-22.949,301.758,-243.164,142.578,61.035,0
1539545147.162,-35.645,205.078,-337.891,6.836,28.809,0
1539545147.166,-61.035,53.711,-477.539,-142.578,14.160,0
1539545147.170,-81.055,38.574,-460.449,-168.945,53.223,0
1539545147.174,-85.449,-65.430,-488.281,-146.973,79.102,0
1539545147.178,-80.078,-335.938,-706.055,-52.734,25.879,0
1539545147.182,-73.242,-682.617,-914.062,208.496,-30.273,0
1539545147.186,-89.844,-761.230,-884.277,562.012,7.812,0
1539545147.189,-117.188,-411.133,-520.508,803.223,87.891,0
1539545147.193,-115.723,-465.332,-486.816,898.926,50.781,0
1539545147.197,-117.676,-742.188,-712.402,921.875,-14.160,0
1539545147.201,-124.023,-760.254,-685.547,842.773,28.809,0
1539545147.205,-124.023,-632.324,-514.648,637.207,86.426,0
1539545147.209,-118.164,-708.984,-554.688,566.895,66.895,0
1539545147.213,-116.699,-922.363,-742.188,629.883,3.418,0
1539545147.217,-124.023,-832.520,-652.344,605.469,8.301,0
1539545147.221,-124.023,-885.742,-608.398,553.711,66.406,0
1539545147.225,-119.141,-972.168,-737.793,551.270,66.895,0
1539545147.229,-108.398,-979.004,-954.102,571.777,-24.414,0
1539545147.232,-105.957,-903.809,-754.395,552.246,-7.324,0
1539545147.236,-112.305,-720.703,-421.875,442.871,74.707,0
1539545147.240,-104.492,-800.781,-494.141,320.312,82.031,0
1539545147.244,-82.031,-904.785,-633.301,183.105,19.531,0
1539545147.248,-67.383,-813.965,-619.141,53.223,-30.273,0
1539545147.252,-65.918,-600.098,-420.410,82.031,41.992,0
1539545147.256,-54.199,-547.363,-348.145,55.176,101.562,0
1539545147.260,-42.480,-652.344,-491.211,-106.934,59.570,0
1539545147.264,-41.016,-589.844,-494.141,-166.504,10.742,0
1539545147.268,-25.879,-582.520,-492.188,-128.906,22.949,0
1539545147.271,-3.418,-741.211,-641.113,-209.961,66.406,0
1539545147.275,-4.883,-688.965,-644.531,-281.738,53.711,0
1539545147.279,-15.137,-381.836,-427.246,-438.477,10.742,0
1539545147.283,-6.836,-211.914,-271.484,-599.121,48.828,0
1539545147.287,3.418,-204.102,-240.723,-497.559,92.773,0
1539545147.291,14.648,-109.863,-157.715,-635.254,103.516,0
1539545147.295,27.832,-41.504,-113.281,-890.137,82.031,0
1539545147.299,34.668,-170.410,-241.211,-763.672,35.645,0
1539545147.303,40.527,-93.262,-134.277,-403.809,104.004,0
1539545147.307,44.434,145.508,128.906,-149.902,181.152,0
1539545147.311,50.781,136.719,159.180,54.199,139.160,0
1539545147.314,51.270,-142.578,-59.082,209.473,87.402,0
1539545147.318,52.246,-364.746,-263.184,16.602,101.562,0
1539545147.322,52.734,-5.371,48.340,-302.734,169.922,0
1539545147.326,48.828,301.270,339.844,-637.695,185.547,0
1539545147.330,41.992,83.496,135.742,-946.289,121.094,0
1539545147.334,48.340,40.527,89.355,-969.727,110.840,0
1539545147.338,52.246,329.102,396.484,-961.914,195.801,0
1539545147.342,52.734,387.207,501.953,-970.215,217.773,0
1539545147.346,63.477,177.734,310.547,-958.496,151.855,0
1539545147.350,69.336,204.102,347.656,-965.332,171.875,0
1539545147.354,66.895,409.668,584.961,-970.703,249.023,0
1539545147.357,67.383,450.195,666.016,-968.262,278.809,0
1539545147.361,85.449,178.711,419.434,-969.238,213.867,0
1539545147.365,88.867,-20.020,200.684,-969.238,162.598,0
1539545147.369,73.730,306.152,517.578,-970.703,253.418,0
1539545147.373,77.637,385.742,643.066,-950.684,296.387,0
1539545147.377,90.332,-57.129,227.051,-987.793,214.355,0
1539545147.381,81.055,-40.039,187.988,-817.871,178.223,0
1539545147.385,68.359,379.395,622.070,-199.707,260.742,0
1539545147.389,70.801,336.426,679.199,266.602,287.109,0
1539545147.393,78.125,204.590,576.172,357.910,259.277,0
1539545147.396,83.008,175.293,536.133,685.059,237.305,0
1539545147.400,74.219,254.395,635.742,-979.492,254.395,0
1539545147.404,72.754,307.129,730.469,992.188,300.781,0
1539545147.408,72.266,117.676,560.059,993.652,287.598,0
1539545147.412,73.242,85.938,499.512,-999.023,263.672,0
1539545147.416,78.613,368.164,769.043,999.512,303.223,0
1539545147.420,83.984,413.086,885.742,999.512,357.910,0
1539545147.424,82.031,182.129,694.824,999.512,375.488,0
1539545147.428,68.848,408.203,872.070,999.512,374.023,0
1539545147.432,65.918,476.074,953.125,999.512,356.445,0
1539545147.436,64.941,450.195,962.891,999.512,412.109,0
1539545147.439,59.082,604.004,-995.117,999.512,469.727,0
1539545147.443,62.500,600.586,997.070,999.512,426.270,0
1539545147.447,61.523,504.883,998.535,999.512,379.883,0
1539545147.451,55.176,452.148,-998.535,999.512,402.344,0
1539545147.455,56.641,327.637,990.234,999.512,423.828,0
1539545147.459,58.594,289.551,961.426,999.512,422.363,0
1539545147.463,56.641,376.953,-978.516,999.512,377.441,0
1539545147.467,61.523,101.562,802.246,999.512,339.844,0
1539545147.471,61.523,62.988,751.953,999.512,382.324,0
1539545147.475,53.711,415.527,-964.355,999.512,395.020,0
1539545147.479,44.434,288.086,959.961,999.512,336.426,0
1539545147.482,47.852,95.703,782.715,999.512,298.340,0
1539545147.486,42.969,209.473,873.535,999.512,340.332,0
1539545147.490,38.574,238.770,917.480,999.512,377.441,0
1539545147.494,45.898,34.668,691.895,999.512,299.805,0
1539545147.498,42.969,-73.242,534.180,999.512,228.027,0
1539545147.502,42.480,-85.449,504.395,999.512,255.859,0
1539545147.506,34.180,37.598,614.258,999.512,317.871,0
1539545147.510,37.598,-9.766,559.082,999.512,272.949,0
1539545147.514,43.457,-358.398,181.152,999.512,176.758,0
1539545147.518,33.203,-148.926,311.523,999.512,182.129,0
