timestamps,TP9,AF7,AF8,TP10,Right AUX,Marker0
1539544978.826,25.879,112.305,-424.316,69.336,37.598,0
1539544978.830,25.391,338.867,-163.086,58.105,95.703,0
1539544978.834,20.020,373.535,-89.355,31.250,115.723,0
1539544978.838,18.555,184.570,-278.809,144.043,66.895,0
1539544978.842,38.086,86.426,-397.949,162.598,22.949,0
1539544978.846,38.574,150.879,-308.105,124.512,86.914,0
1539544978.850,4.883,142.578,-270.508,614.746,120.117,0
1539544978.854,20.996,-130.371,-520.996,822.754,28.320,0
1539544978.857,41.016,-293.457,-740.234,684.082,-43.945,0
1539544978.861,29.297,201.660,-267.578,903.320,31.738,0
1539544978.865,28.809,437.500,35.156,583.984,99.609,0
1539544978.869,7.324,302.246,-113.770,87.891,84.473,0
1539544978.873,29.785,278.809,-200.195,112.305,42.480,0
1539544978.877,47.852,433.105,-31.738,51.758,72.754,0
1539544978.881,26.855,473.145,77.148,-74.707,132.324,0
1539544978.885,41.016,333.008,-32.715,-34.180,104.004,0
1539544978.889,58.594,262.207,-120.117,110.840,34.668,0
1539544978.893,31.250,181.641,-177.734,463.867,20.020,0
1539544978.897,4.883,187.012,-119.629,574.219,87.402,0
1539544978.900,24.902,272.461,-14.648,516.602,104.004,0
1539544978.904,26.367,328.613,28.320,446.289,57.617,0
1539544978.908,0.977,315.430,17.578,579.590,57.129,0
1539544978.912,15.137,270.020,23.438,596.680,100.098,0
1539544978.916,45.410,103.027,-155.273,324.707,101.562,0
1539544978.920,34.668,236.328,-98.633,645.020,75.195,0
1539544978.924,26.855,431.152,86.426,549.316,82.031,0
1539544978.928,46.875,355.957,15.625,56.152,109.375,0
1539544978.932,34.668,383.789,30.762,-64.453,142.090,0
1539544978.936,9.766,416.504,56.641,84.961,118.164,0
1539544978.939,40.527,159.180,-234.863,269.531,43.457,0
1539544978.943,53.711,-44.922,-457.520,653.809,42.480,0
1539544978.947,35.156,73.242,-349.609,902.344,94.238,0
1539544978.951,10.254,395.508,-49.316,-994.629,109.863,0
1539544978.955,8.301,295.898,-172.852,916.992,22.461,0
1539544978.959,18.066,184.570,-319.336,911.133,10.254,0
1539544978.963,23.438,340.820,-146.484,-987.305,76.660,0
1539544978.967,37.109,402.832,-76.660,980.957,101.074,0
1539544978.971,53.711,288.574,-243.652,-993.652,34.668,0
1539544978.975,33.691,263.672,-312.988,955.566,2.441,0
1539544978.979,-0.488,482.910,-96.191,207.031,93.262,0
1539544978.982,17.578,591.309,43.945,165.039,136.719,0
1539544978.986,38.086,283.691,-215.820,764.160,54.688,0
1539544978.990,20.996,-115.723,-674.805,272.949,-30.273,0
1539544978.994,21.973,229.980,-433.594,-366.699,44.922,0
1539544978.998,12.695,637.695,-7.324,-137.695,124.023,0
1539544979.002,19.531,455.566,-127.441,319.336,96.191,0
1539544979.006,57.129,268.555,-351.074,227.539,22.949,0
1539544979.010,39.062,455.566,-189.941,363.281,47.852,0
1539544979.014,29.785,601.562,15.137,494.141,118.652,0
1539544979.018,43.457,452.637,-113.770,500.977,89.844,0
1539544979.022,55.176,179.688,-417.480,962.891,-15.137,0
1539544979.025,49.805,266.113,-366.699,-994.141,0.977,0
1539544979.029,23.926,538.574,-95.215,967.285,80.566,0
1539544979.033,12.695,267.090,-356.934,-993.164,52.734,0
1539544979.037,26.855,68.359,-635.254,998.047,-5.859,0
1539544979.041,32.715,305.664,-476.074,999.512,-23.926,0
1539544979.045,8.789,447.754,-301.758,999.512,36.621,0
1539544979.049,0.488,304.199,-420.410,-996.094,58.594,0
1539544979.053,9.277,247.559,-520.996,977.539,38.086,0
1539544979.057,21.973,379.395,-431.641,-994.141,37.598,0
1539544979.061,17.090,375.488,-421.875,-991.699,46.875,0
1539544979.064,31.738,323.242,-512.695,201.172,60.547,0
1539544979.068,40.039,257.812,-648.438,103.027,49.805,0
1539544979.072,23.438,221.680,-682.129,898.438,4.883,0
1539544979.076,26.367,267.090,-609.375,-983.398,12.695,0
1539544979.080,45.410,256.836,-583.496,979.004,84.473,0
1539544979.084,23.926,160.645,-697.266,-998.047,67.871,0
1539544979.088,22.949,57.129,-882.324,-997.070,-5.371,0
1539544979.092,21.484,73.730,-899.414,947.266,-8.301,0
1539544979.096,6.836,40.527,-908.203,-903.809,44.922,0
1539544979.100,13.184,209.473,-783.203,480.957,76.172,0
1539544979.104,9.766,362.305,-721.191,-680.176,53.223,0
1539544979.107,6.348,186.523,-907.227,-796.387,17.090,0
1539544979.111,-8.301,208.984,-901.855,-964.355,25.879,0
1539544979.115,10.742,431.152,-691.895,-667.480,73.730,0
1539544979.119,31.250,424.805,-615.234,341.797,69.824,0
1539544979.123,34.668,176.758,-824.219,423.828,-6.836,0
1539544979.127,10.742,79.102,-975.586,15.137,-8.301,0
1539544979.131,1.953,180.664,-911.621,-426.270,52.246,0
1539544979.135,8.301,294.434,-836.914,-535.645,64.941,0
1539544979.139,25.879,66.895,-900.879,390.137,3.418,0
1539544979.143,35.645,-30.762,-902.344,988.281,-19.043,0
1539544979.147,2.441,419.922,-608.398,926.270,55.664,0
1539544979.150,11.230,493.652,-485.840,-960.938,81.055,0
1539544979.154,37.109,253.418,-748.047,519.531,7.324,0
1539544979.158,23.438,300.293,-816.406,-714.355,3.418,0
1539544979.162,26.367,510.254,-601.074,-965.820,69.824,0
1539544979.166,42.969,446.777,-583.496,-906.738,76.172,0
1539544979.170,50.293,250.977,-753.906,-979.004,21.484,0
1539544979.174,57.129,136.230,-882.324,-969.238,-12.207,0
1539544979.178,43.945,216.797,-782.715,-966.797,30.762,0
1539544979.182,31.738,305.176,-633.789,-920.410,61.523,0
1539544979.186,48.340,33.691,-870.605,-1000.000,10.254,0
1539544979.189,55.664,119.141,-845.215,-246.582,-16.602,0
1539544979.193,58.105,475.586,-424.805,379.395,46.387,0
1539544979.197,47.852,359.375,-491.699,-727.539,70.312,0
1539544979.201,19.531,304.688,-582.520,-1000.000,49.805,0
1539544979.205,35.156,374.512,-486.816,-665.527,12.207,0
1539544979.209,47.363,395.508,-366.211,-419.434,30.762,0
1539544979.213,51.270,429.688,-226.074,-1000.000,97.656,0
1539544979.217,67.383,411.621,-143.066,-460.449,101.562,0
1539544979.221,57.617,177.734,-295.898,-99.609,21.973,0
1539544979.225,47.852,162.598,-329.590,-969.727,-5.371,0
1539544979.229,55.176,195.312,-238.770,-998.047,37.598,0
1539544979.232,30.273,137.695,-233.887,-937.988,69.824,0
1539544979.236,5.371,391.602,16.602,-976.074,71.289,0
1539544979.240,16.113,299.316,-65.430,-973.633,0.488,0
1539544979.244,26.367,204.590,-151.367,-923.340,6.348,0
1539544979.248,28.809,375.488,24.414,-938.477,92.773,0
1539544979.252,18.066,426.758,67.383,-977.539,99.121,0
1539544979.256,-7.812,112.793,-301.270,-966.309,9.277,0
1539544979.260,-40.527,122.070,-399.414,-969.727,-1.465,0
1539544979.264,-55.176,501.953,-109.375,-972.168,72.754,0
1539544979.268,-33.691,524.414,-209.473,-960.449,75.684,0
1539544979.272,-48.828,380.371,-551.758,-932.129,6.836,0
1539544979.275,-89.355,317.871,-804.688,-1000.000,-21.484,0
1539544979.279,-112.305,582.031,-636.230,-100.586,58.594,0
1539544979.283,-138.184,905.762,-272.949,-971.191,125.977,0
1539544979.287,-124.512,704.102,-472.656,952.148,57.617,0
1539544979.291,-115.723,503.418,-711.914,-970.703,-4.883,0
1539544979.295,-133.301,665.039,-510.254,664.551,51.270,0
1539544979.299,-134.766,661.621,-451.172,-324.219,95.215,0
1539544979.303,-138.184,394.531,-685.059,-775.391,56.641,0
1539544979.307,-140.625,256.348,-822.754,-744.141,15.625,0
1539544979.311,-129.883,268.066,-733.887,-312.988,41.016,0
1539544979.314,-123.047,214.355,-668.945,431.152,107.422,0
1539544979.318,-119.629,-60.059,-772.949,939.941,88.867,0
1539544979.322,-110.352,-314.941,-969.727,997.559,-13.184,0
1539544979.326,-114.258,39.062,-661.621,987.793,34.668,0
1539544979.330,-118.652,150.879,-396.973,-998.047,103.516,0
1539544979.334,-97.656,-65.918,-482.910,999.512,91.797,0
1539544979.338,-85.938,-185.547,-551.270,999.512,52.246,0
1539544979.342,-72.266,-168.945,-485.840,-1000.000,33.691,0
1539544979.346,-41.992,-165.527,-401.855,996.094,66.406,0
1539544979.350,-40.527,-248.047,-430.664,-991.211,76.660,0
1539544979.354,-37.109,-258.301,-449.707,967.773,45.410,0
1539544979.357,-0.977,-246.582,-445.801,956.055,16.602,0
1539544979.361,9.766,-325.195,-488.770,905.762,44.434,0
1539544979.365,-3.906,-484.863,-682.129,187.012,59.082,0
1539544979.369,-1.465,-434.082,-751.953,-722.656,22.949,0
1539544979.373,9.277,-334.961,-746.094,-1000.000,-42.480,0
1539544979.377,30.273,-222.656,-627.441,-792.480,-3.418,0
1539544979.381,48.340,-85.938,-440.918,-819.336,80.078,0
1539544979.385,48.340,28.320,-309.570,-720.703,84.961,0
1539544979.389,50.293,-41.016,-374.023,-433.594,31.738,0
1539544979.393,52.734,-173.340,-502.930,-155.273,-0.488,0
1539544979.397,62.012,-114.258,-425.781,-58.594,31.250,0
1539544979.400,71.289,13.184,-327.637,-768.555,50.781,0
1539544979.404,82.031,-1.465,-394.531,-1000.000,11.230,0
1539544979.408,83.008,-299.316,-721.680,-944.824,-36.621,0
1539544979.412,72.754,-282.715,-749.512,-970.215,2.930,0
1539544979.416,68.848,169.922,-305.664,-969.727,71.289,0
1539544979.420,77.148,173.340,-280.762,-969.238,44.434,0
1539544979.424,84.473,-40.039,-526.367,-969.238,-18.555,0
1539544979.428,80.566,-36.621,-537.109,-969.238,20.020,0
1539544979.432,83.984,148.926,-348.145,-969.238,80.078,0
1539544979.436,87.891,148.438,-354.980,-969.238,48.828,0
1539544979.439,89.355,-62.988,-616.211,-974.121,-26.855,0
1539544979.443,90.820,54.199,-527.832,-934.082,3.906,0
1539544979.447,100.586,243.652,-300.781,-1000.000,76.172,0
1539544979.451,85.938,135.742,-388.672,-793.457,62.012,0
1539544979.455,69.336,-124.023,-645.996,81.055,-0.488,0
1539544979.459,72.754,-167.480,-735.352,-76.660,-5.371,0
1539544979.463,76.172,122.070,-509.277,-522.461,63.965,0
1539544979.467,72.266,183.594,-412.109,-128.906,89.844,0
1539544979.471,82.031,-210.449,-812.988,206.543,3.906,0
1539544979.475,83.008,-96.191,-824.707,-129.883,-29.785,0
1539544979.479,65.918,285.156,-454.590,-554.688,51.758,0
1539544979.482,79.102,186.035,-519.531,-770.508,78.613,1
1539544979.486,78.613,33.203,-716.797,-944.336,51.270,0
1539544979.490,71.289,71.289,-741.211,-979.004,14.160,0
1539544979.494,81.543,194.824,-601.562,-922.852,37.598,0
1539544979.498,96.191,213.867,-514.648,-879.883,83.984,0
1539544979.502,88.867,43.945,-669.922,-942.383,58.105,0
1539544979.506,80.566,-71.289,-843.750,-933.594,-9.766,0
1539544979.510,69.336,186.035,-586.914,-858.887,26.855,0
1539544979.514,72.754,153.809,-531.738,-768.555,83.008,0
1539544979.518,90.820,-34.180,-730.469,-668.945,55.664,0
1539544979.522,78.125,151.367,-616.211,-609.375,-3.906,0
1539544979.525,83.008,214.844,-547.852,-641.602,-4.883,0
1539544979.529,85.938,260.742,-465.820,-671.387,65.918,0
1539544979.533,63.477,310.547,-399.902,-672.363,82.031,0
1539544979.537,46.875,247.559,-476.562,-658.203,16.113,0
1539544979.541,57.129,164.551,-556.641,-606.934,-4.883,0
1539544979.545,77.637,152.832,-535.645,-595.703,41.504,0
1539544979.549,78.125,96.680,-599.609,-600.586,51.270,0
1539544979.553,48.340,114.746,-631.348,-538.086,17.090,0
1539544979.557,24.902,84.473,-698.730,-492.676,-36.133,0
1539544979.561,49.316,-51.270,-839.355,-492.188,0.977,0
1539544979.564,55.176,180.176,-626.953,-475.586,65.430,0
1539544979.568,43.457,332.031,-472.168,-447.266,34.180,0
1539544979.572,47.363,98.633,-722.168,-428.223,-24.902,0
1539544979.576,43.945,145.996,-693.359,-421.387,13.672,0
1539544979.580,47.363,365.234,-452.637,-409.668,76.660,0
1539544979.584,48.340,284.180,-530.273,-391.113,44.922,0
1539544979.588,39.551,90.332,-782.227,-356.445,-15.625,0
1539544979.592,40.039,88.867,-827.148,-325.195,-12.207,0
1539544979.596,53.223,157.715,-723.633,-298.828,54.199,0
1539544979.600,43.945,126.465,-795.410,-265.625,73.730,0
1539544979.604,33.203,-127.441,-942.383,-240.234,-13.184,0
1539544979.607,37.598,-140.625,-925.293,-268.066,-43.945,0
1539544979.611,39.551,311.523,-681.641,-282.227,39.062,0
1539544979.615,40.527,400.391,-557.129,-238.281,75.684,0
1539544979.619,44.922,252.930,-686.523,-228.027,53.223,0
1539544979.623,31.250,189.941,-796.875,-220.215,1.953,0
1539544979.627,35.645,281.250,-694.336,-187.500,5.371,0
1539544979.631,31.738,299.316,-614.258,-194.336,45.898,0
1539544979.635,27.832,210.449,-678.223,-207.031,44.922,0
1539544979.639,35.156,155.762,-762.207,-216.309,-8.789,0
1539544979.643,32.227,115.723,-804.688,-222.656,-4.883,0
1539544979.647,44.922,153.809,-722.168,-195.801,68.359,0
1539544979.650,37.109,-30.273,-875.488,-174.805,30.273,0
1539544979.654,25.879,33.203,-901.367,-166.016,-29.785,0
1539544979.658,26.855,238.770,-720.215,-150.879,-12.207,0
1539544979.662,25.391,160.645,-732.422,-148.926,43.945,0
1539544979.666,25.391,243.164,-640.137,-158.691,71.777,0
1539544979.670,45.898,328.613,-556.641,-127.441,44.922,0
1539544979.674,41.504,221.680,-663.574,-133.301,-4.395,0
1539544979.678,14.160,195.312,-659.668,-150.879,25.879,0
1539544979.682,13.184,274.902,-537.109,-120.117,75.195,0
1539544979.686,34.668,275.391,-524.414,-104.004,40.527,0
1539544979.689,44.434,111.816,-725.098,-110.352,-17.090,0
1539544979.693,28.809,-69.824,-909.668,-127.930,-19.531,0
1539544979.697,24.414,11.230,-838.867,-128.418,13.672,0
1539544979.701,20.020,358.887,-542.480,-120.117,43.457,0
1539544979.705,17.578,376.953,-500.977,-93.262,9.766,0
1539544979.709,12.695,308.105,-556.152,-98.633,-6.348,0
1539544979.713,14.160,418.945,-402.344,-99.121,51.270,0
1539544979.717,24.902,456.543,-310.547,-85.938,91.309,0
1539544979.721,37.109,304.199,-454.102,-91.309,35.645,0
1539544979.725,40.527,174.316,-574.707,-79.102,-11.230,0
1539544979.729,20.508,303.223,-421.387,-72.266,34.180,0
1539544979.732,35.645,446.777,-221.680,-78.613,82.031,0
1539544979.736,41.016,202.637,-423.828,-71.777,36.133,0
1539544979.740,10.742,-218.750,-891.113,-62.500,-62.012,0
1539544979.744,8.301,52.734,-664.551,-48.340,-18.066,0
1539544979.748,5.859,478.516,-150.391,-67.383,80.078,0
1539544979.752,14.160,273.926,-270.996,-60.547,56.152,0
1539544979.756,44.922,65.430,-495.605,-34.668,-9.277,0
1539544979.760,29.297,280.762,-270.020,-54.199,35.645,0
1539544979.764,6.836,427.734,-33.203,-71.289,110.352,0
1539544979.768,12.695,213.867,-200.684,-48.340,62.500,0
1539544979.772,27.832,21.973,-424.805,-32.715,-18.066,0
1539544979.775,17.578,62.012,-402.344,-45.898,-11.230,0
1539544979.779,12.695,245.117,-162.598,-42.480,54.199,0
1539544979.783,25.391,65.918,-285.156,-39.551,66.406,0
1539544979.787,20.508,-142.090,-564.453,-45.410,10.254,0
1539544979.791,6.348,182.129,-307.129,-24.414,17.090,0
1539544979.795,3.418,345.703,-91.797,-21.973,74.219,0
1539544979.799,23.926,270.996,-129.395,-59.570,100.098,0
1539544979.803,23.438,181.641,-242.188,-60.059,60.059,0
1539544979.807,2.930,142.090,-318.359,-31.250,1.953,0
1539544979.811,11.719,163.086,-277.832,-27.344,24.414,0
1539544979.814,16.113,165.039,-239.258,-6.348,68.848,0
1539544979.818,13.672,216.309,-174.316,-0.488,83.496,0
1539544979.822,28.320,162.598,-241.699,-31.738,27.832,0
1539544979.826,29.297,100.098,-303.711,-5.371,18.555,0
1539544979.830,31.250,82.031,-288.086,15.625,76.172,0
1539544979.834,30.762,41.992,-338.379,-17.090,71.777,0
1539544979.838,19.043,-27.344,-454.102,-23.438,6.836,0
1539544979.842,37.109,-80.566,-530.762,-9.277,-20.020,0
1539544979.846,30.762,-96.191,-544.922,15.137,22.949,0
1539544979.850,1.953,187.500,-270.996,0.977,71.289,0
1539544979.854,20.996,354.004,-82.031,-6.836,53.223,0
1539544979.857,60.547,108.887,-322.266,42.480,-9.766,0
1539544979.861,48.340,161.133,-255.371,38.574,26.855,0
1539544979.865,8.789,428.223,86.426,-1.465,119.141,0
1539544979.869,3.418,354.980,68.848,-2.930,82.031,0
1539544979.873,13.672,110.840,-187.988,9.766,-13.184,0
1539544979.877,22.461,74.219,-223.145,30.762,-2.441,0
1539544979.881,21.484,200.684,-68.359,41.016,60.547,0
1539544979.885,20.020,360.840,106.934,15.625,79.102,0
1539544979.889,35.156,134.766,-113.770,7.324,20.020,0
1539544979.893,32.715,9.277,-253.906,13.184,1.465,0
1539544979.897,41.992,439.941,218.750,14.160,75.195,0
1539544979.900,54.688,492.676,368.652,33.691,94.727,0
1539544979.904,51.758,225.586,116.211,34.180,23.926,0
1539544979.908,47.363,190.918,68.848,42.969,-5.371,0
1539544979.912,35.645,288.574,216.309,47.363,51.270,0
1539544979.916,32.715,270.508,247.070,28.320,90.820,0
1539544979.920,32.227,187.012,156.738,59.082,52.734,0
1539544979.924,28.320,8.789,-75.684,61.523,-17.090,0
1539544979.928,24.414,49.316,-72.266,3.906,3.906,0
1539544979.932,23.438,218.262,122.559,18.066,65.918,0
1539544979.936,25.391,6.836,-96.680,45.410,30.762,0
1539544979.939,31.250,49.316,-126.465,40.039,-12.695,0
1539544979.943,26.367,388.184,246.094,43.945,43.945,0
1539544979.947,21.973,312.988,265.137,56.152,97.168,0
1539544979.951,19.531,157.715,132.324,41.992,68.359,0
1539544979.955,24.414,186.035,134.766,29.297,12.207,0
1539544979.959,33.691,208.984,175.781,27.832,18.066,0
1539544979.963,27.344,187.012,193.848,28.809,74.219,0
1539544979.967,26.855,139.160,141.113,53.223,74.707,0
1539544979.971,20.996,-53.223,-114.258,60.059,12.207,0
1539544979.975,14.648,-88.379,-254.395,28.320,-25.391,0
1539544979.979,22.461,-35.156,-244.141,36.133,17.090,0
1539544979.982,13.184,-4.395,-277.344,44.922,67.871,0
1539544979.986,10.254,276.367,-94.238,26.855,53.711,0
1539544979.990,25.391,260.742,-158.203,44.922,-0.488,0
1539544979.994,15.137,247.559,-185.547,40.039,31.738,0
1539544979.998,20.508,381.348,-68.359,31.250,81.543,0
1539544980.002,39.062,458.008,-42.480,39.062,73.730,0
1539544980.006,42.480,196.289,-373.535,39.551,2.930,0
1539544980.010,50.293,176.270,-458.984,51.758,4.883,0
1539544980.014,51.758,461.914,-166.016,67.383,84.961,0
1539544980.018,41.992,368.652,-247.559,62.500,81.543,0
1539544980.022,43.457,177.734,-513.672,48.340,17.090,0
1539544980.025,40.527,89.355,-676.758,40.039,-11.230,0
1539544980.029,33.203,399.902,-368.652,36.621,55.664,0
1539544980.033,42.480,733.887,44.434,57.617,117.188,0
1539544980.037,73.730,504.395,-128.906,82.031,69.336,0
1539544980.041,90.820,386.230,-266.113,61.523,27.344,0
1539544980.045,60.059,605.469,7.324,48.340,74.219,0
1539544980.049,33.691,669.434,201.660,41.016,118.652,0
1539544980.053,51.270,484.375,81.543,57.617,74.707,0
1539544980.057,31.250,376.953,-109.863,70.801,-5.859,0
1539544980.061,10.742,643.555,70.312,41.016,42.480,0
1539544980.064,41.504,735.352,101.562,62.988,110.840,0
1539544980.068,85.938,452.148,-305.176,99.609,61.523,0
1539544980.072,81.055,328.613,-578.613,98.145,-25.879,0
1539544980.076,72.266,752.441,-194.824,85.938,22.461,0
1539544980.080,41.016,-999.023,154.785,62.500,89.844,0
1539544980.084,29.297,989.258,162.109,73.242,67.383,0
1539544980.088,99.121,996.094,172.852,115.723,8.301,0
1539544980.092,83.496,-999.512,433.594,96.191,7.812,0
1539544980.096,23.926,999.512,854.004,63.965,75.684,0
1539544980.100,86.914,999.512,-988.770,94.727,104.004,0
1539544980.104,38.574,999.512,987.793,43.457,62.500,0
1539544980.107,-60.059,999.512,999.023,-26.855,22.461,0
1539544980.111,-40.527,999.512,-1000.000,-6.836,46.387,0
1539544980.115,-106.934,999.512,999.512,-85.449,74.219,0
1539544980.119,-123.535,999.512,999.512,-96.680,45.898,0
1539544980.123,26.367,999.512,999.512,41.504,-9.766,0
1539544980.127,-10.254,999.512,999.512,-20.996,35.156,0
1539544980.131,-246.582,999.512,999.512,-254.883,65.430,0
1539544980.135,-298.340,999.512,999.512,-343.262,67.871,0
1539544980.139,-291.016,999.512,999.512,-334.473,35.156,0
1539544980.143,-355.469,999.512,999.512,-357.910,20.020,0
1539544980.147,-357.422,999.512,999.512,-394.531,78.125,0
1539544980.150,-398.438,999.512,999.512,-473.145,109.863,0
1539544980.154,-472.656,999.512,999.512,-546.875,68.359,0
1539544980.158,-582.520,999.512,999.512,-634.277,23.926,0
1539544980.162,-684.570,999.512,999.512,-729.980,63.965,0
1539544980.166,-732.910,999.512,999.512,-803.223,104.004,0
1539544980.170,-814.941,-999.512,999.512,-894.531,49.316,0
1539544980.174,-874.512,-1000.000,999.512,-954.102,-26.367,0
1539544980.178,-935.059,939.453,999.512,-968.262,1.465,1
1539544980.182,-970.703,-873.047,999.512,-968.262,47.852,0
1539544980.186,-967.773,246.582,999.512,-969.238,18.066,0
1539544980.189,-968.750,-1000.000,999.512,-969.238,-45.898,0
1539544980.193,-969.238,-961.426,999.512,-969.238,-27.832,0
1539544980.197,-969.238,-938.965,999.512,-969.238,41.016,0
1539544980.201,-969.238,-977.051,999.512,-969.238,45.898,0
1539544980.205,-969.238,-969.238,999.512,-969.238,-3.418,0
1539544980.209,-969.238,-969.238,999.512,-969.238,12.207,0
1539544980.213,-968.262,-969.238,999.512,-969.238,70.312,0
1539544980.217,-969.238,-969.238,999.512,-969.238,86.426,0
1539544980.221,-961.426,-969.238,999.512,-969.727,31.738,0
1539544980.225,-911.133,-969.238,999.512,-966.309,30.762,0
1539544980.229,-846.191,-969.238,999.512,-972.168,116.699,0
1539544980.232,-790.527,-969.238,999.512,-940.430,144.043,0
1539544980.236,-734.375,-969.238,999.512,-860.840,96.191,0
1539544980.240,-664.551,-969.238,999.512,-680.176,56.641,0
1539544980.244,-581.055,-969.238,999.512,-433.105,98.633,0
1539544980.248,-575.195,-969.238,999.512,-542.969,155.273,0
1539544980.252,-570.312,-969.238,999.512,-354.980,148.926,0
1539544980.256,-487.793,-969.238,999.512,309.570,69.824,0
1539544980.260,-454.102,-975.586,999.512,694.824,89.844,0
1539544980.264,-434.082,-927.734,999.512,-981.934,140.137,0
1539544980.268,-402.832,-1000.000,999.512,878.906,96.191,0
1539544980.272,-386.719,-751.953,999.512,760.254,88.867,0
1539544980.275,-335.449,485.840,999.512,-867.188,95.215,0
1539544980.279,-290.039,-931.641,999.512,500.000,136.230,0
1539544980.283,-278.320,955.566,999.512,-446.289,152.832,0
1539544980.287,-260.254,999.023,999.512,-138.672,105.957,0
1539544980.291,-220.215,-997.559,999.512,529.297,66.895,0
1539544980.295,-194.336,997.070,999.512,702.637,80.566,0
1539544980.299,-178.711,946.777,999.512,-437.012,127.930,0
1539544980.303,-134.277,-893.066,999.512,-1000.000,111.816,0
1539544980.307,-128.906,227.051,999.512,-853.027,78.125,0
1539544980.311,-159.668,-995.605,999.512,-717.285,94.727,0
1539544980.314,-125.488,-963.379,999.512,-557.617,143.066,0
1539544980.318,-44.434,-939.941,999.512,-620.605,156.250,0
1539544980.322,19.043,-977.051,999.512,-759.766,68.359,0
1539544980.326,26.855,-969.238,999.512,-739.746,64.941,0
1539544980.330,30.273,-969.238,999.512,-721.191,144.043,0
1539544980.334,32.227,-969.238,999.512,-683.594,142.090,0
1539544980.338,48.828,-969.238,999.512,-619.629,40.527,0
1539544980.342,25.879,-969.238,999.512,-601.562,8.301,0
1539544980.346,8.301,-969.238,999.512,-601.074,84.473,0
1539544980.350,35.645,-969.238,999.512,-556.152,131.348,0
1539544980.354,53.223,-969.238,999.512,-515.137,60.547,0
1539544980.357,37.109,-969.238,999.512,-498.047,-0.977,0
1539544980.361,-2.930,-969.238,999.512,-491.211,63.477,0
1539544980.365,0.977,-969.238,999.512,-464.844,122.559,0
1539544980.369,7.812,-969.238,999.512,-431.641,94.727,0
1539544980.373,19.043,-969.238,999.512,-409.668,3.418,0
1539544980.377,57.129,-969.238,999.512,-371.094,28.809,0
1539544980.381,76.172,-969.238,999.512,-349.121,104.004,0
1539544980.385,66.895,-969.238,999.512,-351.562,95.215,0
1539544980.389,73.730,-969.238,999.512,-306.152,11.230,0
1539544980.393,97.656,-969.238,999.512,-206.543,-19.043,0
1539544980.397,122.070,-969.238,999.512,-204.590,38.574,0
1539544980.400,112.793,-969.238,999.512,-224.121,38.574,0
1539544980.404,77.637,-969.238,999.512,517.090,-5.371,0
1539544980.408,64.941,-969.238,999.512,-937.500,-35.645,0
1539544980.412,70.312,-969.238,999.512,970.215,5.371,0
1539544980.416,100.586,-969.238,999.512,996.094,77.637,0
1539544980.420,116.699,-969.238,999.512,-999.512,42.969,0
1539544980.424,127.441,-969.238,999.512,999.512,-19.531,0
1539544980.428,190.430,-969.238,999.023,999.512,-1.953,0
1539544980.432,151.367,-969.238,985.840,999.512,57.129,0
1539544980.436,122.070,-969.238,-985.840,999.512,53.711,0
1539544980.439,156.738,-969.238,824.707,999.512,-27.344,0
1539544980.443,109.375,-969.238,294.434,999.512,-32.227,0
1539544980.447,71.289,-969.238,-20.996,999.512,30.762,0
1539544980.451,66.406,-969.238,-77.637,999.512,54.199,0
1539544980.455,92.773,-969.238,-476.562,999.512,-18.066,0
1539544980.459,146.973,-969.238,-899.902,999.512,-28.809,0
1539544980.463,118.652,-969.238,-970.703,999.512,45.898,0
1539544980.467,72.754,-969.238,-959.961,999.512,56.641,0
1539544980.471,124.512,-969.238,-970.215,999.512,-3.906,0
1539544980.475,124.023,-969.238,-969.238,999.512,-37.598,0
1539544980.479,89.355,-969.238,-969.238,999.512,22.949,0
1539544980.482,104.492,-969.238,-969.238,999.512,51.270,0
1539544980.486,125.488,-969.238,-969.238,999.512,21.484,0
1539544980.490,132.324,-969.238,-969.238,999.512,-60.547,0
1539544980.494,145.508,-969.238,-969.238,999.512,-36.621,0
1539544980.498,173.828,-969.238,-969.238,999.512,82.520,0
1539544980.502,140.137,-969.238,-969.238,999.512,81.055,0
1539544980.506,115.723,-969.238,-969.238,999.512,-2.930,0
1539544980.510,129.395,-969.238,-969.238,999.512,5.859,0
1539544980.514,128.418,-969.238,-969.238,999.512,69.824,0
1539544980.518,146.973,-969.238,-969.238,999.512,68.359,0
1539544980.522,163.086,-969.238,-969.238,999.512,15.625,0
1539544980.525,151.367,-969.238,-969.238,999.512,-5.859,0
1539544980.529,129.395,-969.238,-969.238,999.512,44.434,0
1539544980.533,155.273,-969.238,-969.238,999.512,54.688,0
1539544980.537,158.203,-969.238,-969.238,999.512,-4.883,0
1539544980.541,121.582,-969.238,-969.238,999.512,-21.484,0
1539544980.545,157.715,-969.238,-969.238,999.512,27.832,0
1539544980.549,163.086,-969.238,-969.238,999.512,66.406,0
1539544980.553,114.258,-969.238,-969.238,999.512,53.223,0
1539544980.557,124.512,-969.238,-969.238,999.512,12.695,0
1539544980.561,129.395,-969.238,-969.238,999.512,31.250,0
1539544980.564,133.789,-969.238,-969.238,999.512,82.031,0
1539544980.568,140.137,-969.238,-969.238,999.512,63.965,0
1539544980.572,116.211,-969.238,-969.238,999.512,15.137,0
1539544980.576,111.816,-969.238,-969.238,999.512,11.230,0
1539544980.580,126.465,-969.238,-969.238,999.512,24.902,0
1539544980.584,118.652,-969.238,-969.238,999.512,35.156,0
1539544980.588,119.629,-969.238,-969.238,999.512,24.414,0
1539544980.592,151.367,-969.238,-969.238,999.512,11.230,0
1539544980.596,131.836,-969.238,-969.238,999.512,42.480,0
1539544980.600,75.195,-969.238,-969.238,999.512,87.402,0
1539544980.604,87.402,-969.238,-969.238,999.512,37.598,0
1539544980.607,115.723,-969.238,-969.238,999.512,-22.461,0
1539544980.611,112.305,-969.238,-969.238,999.512,46.387,0
1539544980.615,107.910,-969.238,-969.238,999.512,115.234,0
1539544980.619,100.586,-969.238,-969.238,999.512,56.641,0
1539544980.623,99.121,-969.238,-969.238,999.512,-15.137,0
1539544980.627,114.258,-969.238,-969.238,999.512,14.160,0
1539544980.631,121.094,-969.238,-969.238,999.512,81.543,0
1539544980.635,102.051,-969.238,-969.238,999.512,88.867,0
1539544980.639,111.328,-969.238,-969.238,999.512,29.785,0
1539544980.643,121.582,-969.238,-969.238,999.512,3.418,0
1539544980.647,100.586,-969.238,-969.238,999.512,74.219,0
1539544980.650,113.770,-969.238,-969.238,999.512,92.285,0
1539544980.654,141.602,-969.238,-969.238,999.512,40.039,0
1539544980.658,125.977,-969.238,-969.238,999.512,21.973,0
1539544980.662,115.234,-969.238,-969.238,999.512,66.895,0
1539544980.666,109.863,-969.238,-969.238,999.512,91.797,0
1539544980.670,74.707,-969.238,-969.238,999.512,61.035,0
1539544980.674,69.824,-969.238,-969.238,999.512,-6.348,0
1539544980.678,55.664,-968.750,-969.238,999.512,25.879,0
1539544980.682,56.152,-963.379,-969.238,999.512,74.707,0
1539544980.686,73.730,-976.562,-969.238,999.023,2.441,0
1539544980.689,69.336,-908.691,-969.238,-1000.000,-33.691,0
1539544980.693,63.477,-747.070,-969.238,999.512,13.184,0
1539544980.697,55.176,-778.809,-969.238,989.746,63.477,0
1539544980.701,62.012,-788.574,-969.238,995.605,71.777,0
1539544980.705,47.363,-716.309,-969.238,-999.023,14.160,0
1539544980.709,24.414,-664.551,-969.238,998.535,18.555,0
1539544980.713,41.992,-633.789,-969.238,999.512,71.777,0
1539544980.717,43.457,-630.859,-969.238,999.512,73.242,0
1539544980.721,41.016,-719.238,-969.238,999.512,18.066,0
1539544980.725,60.059,-651.367,-969.238,999.512,-0.488,0
1539544980.729,42.480,-601.562,-969.238,999.512,46.875,0
1539544980.732,54.688,-631.836,-969.238,999.512,68.848,0
1539544980.736,87.402,-466.797,-969.238,999.512,46.387,0
1539544980.740,55.176,-500.000,-969.238,999.512,-6.348,0
1539544980.744,25.879,-481.445,-969.238,999.512,30.762,0
1539544980.748,25.879,-361.816,-969.238,999.512,102.539,0
1539544980.752,31.250,-389.648,-969.238,999.512,56.152,0
1539544980.756,38.574,-553.711,-969.238,999.512,-34.180,0
1539544980.760,31.738,-459.473,-969.238,999.512,-0.488,0
1539544980.764,32.227,-272.461,-969.238,999.512,64.453,0
1539544980.768,37.109,-338.867,-969.238,999.512,62.988,0
1539544980.772,74.707,-448.242,-969.238,999.512,9.766,0
1539544980.775,85.938,-348.145,-969.238,999.512,-14.648,1
1539544980.779,26.855,-99.609,-969.238,999.512,50.781,0
1539544980.783,25.879,40.527,-969.238,999.512,97.168,0
1539544980.787,56.641,-48.340,-969.238,999.512,20.508,0
1539544980.791,56.641,-81.055,-969.238,999.512,-47.852,0
1539544980.795,33.691,367.676,-969.238,-998.047,8.301,0
1539544980.799,37.598,628.418,-969.238,983.398,74.707,0
1539544980.803,67.383,375.488,-969.238,-973.633,52.246,0
1539544980.807,69.824,222.656,-969.238,914.062,-11.719,0
1539544980.811,32.227,288.086,-969.238,564.941,36.621,0
1539544980.814,52.246,155.273,-969.238,746.094,91.309,0
1539544980.818,70.312,-120.605,-969.238,855.957,42.969,0
1539544980.822,57.129,-188.477,-969.238,608.887,-11.719,0
1539544980.826,51.270,16.602,-969.238,-107.422,-7.324,0
1539544980.830,26.367,61.035,-969.238,-963.379,44.922,0
1539544980.834,38.086,-50.781,-969.238,-972.656,48.828,0
1539544980.838,53.711,-109.863,-969.238,-944.824,1.465,0
1539544980.842,49.805,25.391,-969.238,-976.074,-8.301,0
1539544980.846,58.105,159.668,-969.238,-969.238,42.480,0
1539544980.850,59.570,76.660,-969.238,-969.238,56.641,0
1539544980.854,77.148,-22.461,-969.238,-969.238,0.977,0
1539544980.857,91.309,-38.574,-969.238,-969.238,-1.953,0
1539544980.861,60.059,-90.332,-969.238,-969.238,36.621,0
1539544980.865,49.316,-208.984,-969.238,-969.238,56.641,0
1539544980.869,62.500,-167.480,-969.238,-969.238,34.180,0
1539544980.873,64.941,-83.984,-969.238,-969.238,-21.973,0
1539544980.877,65.918,-146.973,-969.238,-969.727,-27.344,0
1539544980.881,58.594,-139.648,-969.238,-960.938,34.180,0
1539544980.885,48.828,-125.000,-969.238,-982.422,63.965,0
1539544980.889,80.566,-284.180,-969.238,-907.227,8.301,0
1539544980.893,67.871,-397.461,-969.238,-676.758,3.906,0
1539544980.897,32.227,-446.289,-969.238,-760.254,65.430,0
1539544980.900,41.992,-510.254,-969.238,-935.547,74.707,0
1539544980.904,51.270,-616.699,-969.238,-829.102,19.043,0
1539544980.908,49.316,-652.832,-969.238,-690.430,-6.836,0
1539544980.912,41.992,-511.230,-969.238,-326.660,29.785,0
1539544980.916,48.828,-340.332,-969.238,332.031,90.332,0
1539544980.920,66.406,-432.617,-969.238,855.469,50.781,0
1539544980.924,69.824,-658.203,-969.238,-998.535,-36.621,0
1539544980.928,63.965,-539.062,-969.238,988.281,-5.371,0
1539544980.932,56.641,-171.875,-969.238,999.023,60.547,0
1539544980.936,65.430,-183.594,-969.238,-1000.000,42.969,0
1539544980.939,76.172,-345.703,-969.238,998.047,-4.883,0
1539544980.943,70.312,-211.426,-969.238,-995.605,13.184,0
1539544980.947,59.570,-11.230,-969.238,978.027,62.500,0
1539544980.951,64.941,-37.109,-969.238,978.027,57.617,0
1539544980.955,81.055,-246.094,-969.238,989.746,8.301,0
1539544980.959,61.035,-329.590,-969.238,879.395,4.883,0
1539544980.963,30.273,-296.875,-969.238,794.434,62.988,0
1539544980.967,34.668,-461.426,-969.238,571.777,76.172,0
1539544980.971,55.664,-765.625,-969.238,541.016,1.953,0
1539544980.975,60.059,-670.410,-969.238,783.203,-20.508,0
1539544980.979,56.641,-501.465,-969.238,919.434,55.664,0
1539544980.982,45.898,-683.594,-969.238,-999.512,96.191,0
1539544980.986,61.035,-877.441,-969.238,996.582,42.480,0
1539544980.990,67.871,-807.129,-969.238,998.047,-2.930,0
1539544980.994,62.500,-653.320,-969.238,999.512,42.969,0
1539544980.998,66.406,-668.457,-969.238,999.512,87.891,0
1539544981.002,64.453,-768.066,-969.238,999.512,65.918,0
1539544981.006,76.660,-807.617,-969.238,999.512,-2.441,0
1539544981.010,93.262,-626.953,-969.238,999.512,8.789,0
1539544981.014,64.941,-611.328,-969.238,999.512,53.223,0
1539544981.018,29.297,-654.785,-969.238,999.512,43.457,0
1539544981.022,57.129,-452.637,-969.238,999.512,15.137,0
1539544981.025,43.945,-388.672,-969.238,999.512,4.883,0
1539544981.029,8.301,-305.664,-969.238,999.512,51.758,0
1539544981.033,20.020,-145.020,-969.238,999.512,90.820,0
1539544981.037,17.090,-79.590,-969.238,999.512,44.922,0
1539544981.041,11.719,-114.746,-969.238,999.512,0.488,0
1539544981.045,22.461,-95.215,-969.238,999.512,48.340,0
1539544981.049,5.371,-58.105,-969.238,999.512,62.012,0
1539544981.053,-16.602,41.504,-969.238,999.512,29.785,0
1539544981.057,-8.301,83.496,-969.238,999.512,-25.879,0
1539544981.061,0.000,68.848,-969.238,999.512,-3.418,0
1539544981.064,-4.883,334.473,-969.238,999.512,76.660,0
1539544981.068,-5.371,458.496,-969.238,999.512,74.219,0
1539544981.072,10.742,245.605,-969.238,999.512,-6.836,0
1539544981.076,20.508,218.750,-969.238,999.512,-20.996,0
1539544981.080,27.344,350.098,-969.238,999.512,57.129,0
1539544981.084,34.180,306.152,-969.238,999.512,65.918,0
1539544981.088,36.621,134.766,-969.238,999.512,3.418,0
1539544981.092,49.805,99.121,-969.238,999.512,-27.832,0
1539544981.096,41.016,75.684,-969.238,-996.582,19.043,0
1539544981.100,26.855,-8.789,-969.238,982.910,69.824,0
1539544981.104,34.668,-161.133,-969.238,975.098,-7.324,0
1539544981.107,47.852,-69.336,-969.238,-961.914,-70.801,0
1539544981.111,53.711,240.723,-969.238,6.348,21.973,0
1539544981.115,51.270,179.199,-969.238,-963.379,91.797,0
1539544981.119,60.547,9.277,-969.238,-489.746,47.363,0
1539544981.123,42.969,-113.281,-969.238,-556.152,-13.672,0
1539544981.127,20.020,-109.375,-969.238,-1000.000,33.203,0
1539544981.131,26.367,-211.914,-969.238,-967.285,84.961,0
1539544981.135,32.715,-444.824,-969.238,-942.871,50.293,0
1539544981.139,36.621,-517.578,-969.238,-993.164,-16.113,0
1539544981.143,38.574,-483.398,-969.238,-728.516,-1.465,0
1539544981.147,33.691,-465.820,-969.238,-198.242,48.340,0
1539544981.150,34.668,-467.773,-969.238,165.527,57.129,0
1539544981.154,35.645,-306.152,-969.238,469.727,33.203,0
1539544981.158,50.293,-194.824,-969.238,767.578,14.160,0
1539544981.162,41.504,-288.086,-969.238,977.539,43.945,0
1539544981.166,32.227,-120.117,-969.238,-1000.000,70.801,0
1539544981.170,34.668,83.984,-969.238,994.141,57.129,0
1539544981.174,38.574,9.766,-969.238,-999.512,12.695,0
1539544981.178,42.969,-56.641,-969.238,999.512,31.738,0
1539544981.182,48.828,57.617,-969.238,999.512,81.543,0
1539544981.186,51.270,95.215,-969.238,999.512,58.594,0
1539544981.189,30.273,-146.973,-969.238,999.512,-24.414,0
1539544981.193,31.250,-243.652,-969.238,999.512,-29.297,0
1539544981.197,29.297,-78.613,-969.238,999.512,18.555,0
1539544981.201,32.715,212.402,-969.238,999.512,73.242,0
1539544981.205,45.410,75.195,-969.238,999.512,35.156,0
1539544981.209,38.086,-161.621,-969.238,999.512,-7.324,0
1539544981.213,20.996,-103.027,-969.238,999.512,79.102,0
1539544981.217,27.344,-199.219,-969.238,999.512,114.258,0
1539544981.221,51.270,-394.531,-969.238,999.512,40.039,0
1539544981.225,45.410,-328.125,-969.238,999.512,-14.648,0
1539544981.229,42.480,-162.598,-969.238,999.512,31.738,0
1539544981.232,78.125,-42.480,-969.238,999.512,95.703,0
1539544981.236,66.895,-258.301,-969.238,999.512,59.082,0
1539544981.240,20.996,-635.742,-969.238,999.512,-11.230,0
1539544981.244,17.578,-459.961,-969.238,999.512,22.461,0
1539544981.248,27.344,-209.473,-969.238,999.512,89.355,0
1539544981.252,46.875,-407.715,-969.238,999.512,68.848,0
1539544981.256,45.898,-554.688,-969.238,999.512,17.578,0
1539544981.260,29.785,-456.543,-969.238,999.512,24.414,0
1539544981.264,29.297,-404.297,-969.238,999.512,87.402,0
1539544981.268,29.297,-514.160,-969.238,999.512,99.121,0
1539544981.272,74.707,-634.277,-969.238,999.512,18.555,0
1539544981.275,75.195,-612.305,-969.238,999.512,-8.789,0
1539544981.279,4.883,-496.094,-969.238,997.559,37.109,0
1539544981.283,9.277,-616.211,-969.238,998.047,43.945,0
1539544981.287,29.297,-680.664,-969.238,-993.652,2.441,0
1539544981.291,12.695,-454.590,-969.238,914.551,-16.602,0
1539544981.295,-4.395,-355.957,-969.238,915.527,20.020,0
1539544981.299,2.930,-388.184,-969.238,-991.699,59.082,0
1539544981.303,16.113,-406.250,-969.238,-999.023,16.113,0
1539544981.307,-6.836,-349.121,-969.238,976.562,-40.039,0
1539544981.311,-12.695,-278.809,-969.238,-985.840,5.859,0
1539544981.314,20.996,-227.051,-969.238,868.652,69.336,0
1539544981.318,7.812,-209.473,-969.238,120.605,52.246,0
1539544981.322,1.465,-229.492,-969.238,-554.688,-16.113,0
1539544981.326,11.230,-169.434,-969.238,-817.383,6.836,0
1539544981.330,1.953,-92.773,-969.238,-945.801,50.293,0
1539544981.334,37.598,4.395,-969.238,-968.262,45.898,2
1539544981.338,47.852,22.461,-969.238,-967.285,-2.441,0
1539544981.342,11.719,46.387,-969.238,-970.215,-24.902,0
1539544981.346,10.254,12.207,-969.238,-953.613,16.113,0
1539544981.350,8.301,117.188,-969.238,-985.840,51.758,0
1539544981.354,25.879,186.523,-969.238,-800.293,29.785,0
1539544981.357,49.805,4.883,-969.238,-267.578,-13.672,0
1539544981.361,15.137,9.277,-969.238,255.859,23.926,0
1539544981.365,-3.418,81.055,-969.238,638.672,94.727,0
1539544981.369,16.602,-73.730,-969.238,836.426,77.148,0
1539544981.373,29.297,-269.043,-969.238,963.867,-0.977,0
1539544981.377,38.086,-228.027,-969.238,-996.582,-13.184,0
1539544981.381,19.531,-62.988,-969.238,995.605,47.852,0
1539544981.385,3.906,-49.805,-969.238,-1000.000,47.363,0
1539544981.389,18.555,-256.836,-969.238,999.512,-37.598,0
1539544981.393,27.344,-199.219,-969.238,999.512,-38.574,0
1539544981.397,19.531,179.199,-969.238,999.512,64.941,0
1539544981.400,23.926,154.785,-969.238,-995.117,78.125,0
1539544981.404,26.855,-27.344,-969.238,967.285,5.371,0
1539544981.408,30.273,20.020,-969.238,-983.887,-19.531,0
1539544981.412,20.996,151.855,-969.238,881.348,49.316,0
1539544981.416,18.066,74.219,-969.238,-296.387,89.844,0
1539544981.420,31.738,-103.516,-969.238,-1000.000,30.762,0
1539544981.424,29.785,-224.121,-969.238,-929.199,-28.809,0
1539544981.428,27.344,-131.836,-969.238,-963.867,6.836,0
1539544981.432,32.227,-80.566,-969.238,-971.680,38.574,0
1539544981.436,49.805,-344.727,-969.238,-969.238,-13.184,0
1539544981.439,39.062,-259.277,-969.238,-970.703,-26.855,0
1539544981.443,9.277,-15.625,-969.238,-964.355,19.043,0
1539544981.447,8.789,-84.961,-969.238,-964.844,70.312,0
1539544981.451,29.785,-159.180,-969.238,-984.863,69.336,0
1539544981.455,11.230,-127.930,-969.238,-662.598,12.695,0
1539544981.459,-12.207,-104.492,-969.238,-640.137,10.254,0
1539544981.463,-2.441,-86.914,-969.238,-992.188,57.129,0
1539544981.467,9.277,-66.406,-969.238,-970.703,80.078,0
1539544981.471,25.879,-194.336,-969.238,-959.961,17.090,0
1539544981.475,25.391,-170.898,-969.238,-971.191,-25.391,0
1539544981.479,20.996,-144.043,-969.238,-969.238,-5.859,0
1539544981.482,27.344,-141.602,-969.238,-969.238,30.762,0
1539544981.486,34.668,80.566,-969.238,-969.238,23.926,0
1539544981.490,39.551,57.617,-969.238,-969.238,-22.461,0
1539544981.494,38.086,50.293,-969.238,-969.238,14.648,0
1539544981.498,56.152,114.258,-969.238,-969.238,53.223,0
1539544981.502,64.453,134.766,-969.238,-969.238,30.273,0
1539544981.506,42.969,-16.113,-969.238,-969.238,-38.574,0
1539544981.510,36.133,38.086,-969.238,-969.238,-16.602,0
1539544981.514,43.457,262.207,-969.238,-969.238,63.477,0
1539544981.518,64.453,172.852,-969.238,-969.238,62.988,0
1539544981.522,92.285,0.488,-969.238,-969.238,-16.113,0
1539544981.525,76.660,-47.852,-969.238,-969.238,-47.363,0
1539544981.529,37.598,205.566,-969.238,-969.238,40.039,0
1539544981.533,28.320,375.000,-969.238,-969.238,77.637,0
1539544981.537,54.199,165.527,-969.238,-969.238,20.508,0
1539544981.541,51.270,87.891,-969.238,-969.238,-13.672,0
1539544981.545,37.109,272.949,-969.238,-969.238,40.039,0
1539544981.549,50.293,337.891,-969.238,-969.238,102.051,0
1539544981.553,81.055,166.992,-969.238,-969.238,60.547,0
1539544981.557,65.430,107.422,-969.238,-969.238,1.953,0
1539544981.561,38.086,266.602,-969.238,-969.238,49.316,0
1539544981.564,51.270,243.164,-969.238,-969.238,83.984,0
1539544981.568,82.520,8.301,-969.238,-969.238,36.133,0
1539544981.572,82.031,-14.160,-969.238,-969.238,-18.555,0
1539544981.576,35.156,305.664,-969.238,-969.238,15.625,0
1539544981.580,27.344,403.320,-969.238,-969.238,98.145,0
1539544981.584,45.898,264.648,-969.238,-969.238,98.145,0
1539544981.588,32.227,174.316,-969.238,-969.238,17.578,0
1539544981.592,41.992,260.742,-969.238,-969.238,20.508,0
1539544981.596,69.336,294.434,-969.238,-969.238,68.359,0
1539544981.600,42.480,184.570,-969.238,-969.238,85.449,0
1539544981.604,18.066,148.926,-969.238,-969.238,35.156,0
1539544981.607,21.484,195.312,-969.238,-969.238,-8.301,0
1539544981.611,35.156,170.410,-969.238,-969.238,47.363,0
1539544981.615,38.086,59.570,-969.238,-969.238,76.172,0
1539544981.619,24.414,146.484,-969.238,-969.238,41.992,0
1539544981.623,24.902,234.863,-969.238,-969.238,11.230,0
1539544981.627,37.598,174.316,-969.238,-969.238,0.977,0
1539544981.631,48.340,267.090,-969.238,-969.238,66.895,0
1539544981.635,42.969,333.496,-969.238,-969.238,83.984,0
1539544981.639,57.129,225.586,-969.238,-969.238,14.648,0
1539544981.643,80.078,188.965,-969.238,-969.238,20.996,0
1539544981.647,44.922,238.770,-969.238,-969.238,68.848,0
1539544981.650,28.809,275.391,-969.238,-969.238,75.195,0
1539544981.654,45.898,202.637,-969.238,-969.238,20.996,0
1539544981.658,42.969,18.555,-969.238,-969.238,-10.742,0
1539544981.662,34.180,102.539,-969.238,-970.703,51.270,0
1539544981.666,53.223,349.609,-969.238,-968.750,104.980,0
1539544981.670,65.918,273.438,-969.238,-917.969,72.754,0
1539544981.674,39.062,113.281,-969.238,-1000.000,-5.859,0
1539544981.678,33.203,145.508,-969.238,-297.852,26.367,0
1539544981.682,32.227,287.598,-969.238,940.430,115.723,0
1539544981.686,36.133,298.340,-969.238,-988.770,101.074,0
1539544981.689,53.223,115.234,-969.238,964.844,15.625,0
1539544981.693,50.781,216.309,-969.238,-993.164,33.203,0
1539544981.697,40.527,372.559,-969.238,999.512,95.215,0
1539544981.701,39.551,303.711,-969.238,999.512,101.074,0
1539544981.705,44.434,131.836,-969.238,999.512,47.852,0
1539544981.709,54.199,94.238,-969.238,999.512,8.789,0
1539544981.713,48.828,325.684,-969.238,999.512,82.031,0
1539544981.717,45.898,295.898,-969.727,999.512,104.492,0
1539544981.721,60.059,44.922,-965.332,999.512,8.789,0
1539544981.725,79.102,182.129,-977.539,999.512,-17.090,0
1539544981.729,53.711,374.512,-946.289,-999.512,60.059,0
1539544981.732,27.832,283.203,-906.250,985.840,122.070,0
1539544981.736,50.293,84.961,-958.496,-974.609,74.707,0
1539544981.740,65.918,142.090,-983.887,874.512,15.625,0
1539544981.744,64.453,327.637,-934.082,523.438,72.754,0
1539544981.748,55.664,302.734,-907.227,729.004,128.906,0
1539544981.752,54.688,153.320,-969.238,-967.285,92.285,0
1539544981.756,67.871,83.984,-972.168,990.723,10.254,0
1539544981.760,69.824,305.664,-964.355,989.746,18.555,0
1539544981.764,45.410,342.285,-975.098,-986.328,69.336,0
1539544981.768,39.551,271.973,-947.754,945.801,90.332,0
1539544981.772,59.570,413.086,-925.781,923.828,91.309,0
1539544981.775,57.129,317.383,-895.508,-994.629,65.918,0
1539544981.779,48.340,269.043,-827.637,990.723,104.004,0
1539544981.783,54.688,289.551,-707.031,-991.211,132.324,0
1539544981.787,53.711,231.445,-666.992,888.184,105.469,0
1539544981.791,60.059,127.441,-758.789,568.359,69.336,0
1539544981.795,65.918,133.789,-742.676,411.621,111.816,0
1539544981.799,69.336,168.457,-701.172,402.344,160.156,0
1539544981.803,71.777,214.844,-688.965,143.066,136.719,0
1539544981.807,94.727,166.016,-777.832,-204.590,62.012,0
1539544981.811,96.680,3.906,-979.492,-449.219,39.062,0
1539544981.814,66.895,204.590,-799.805,-606.934,123.535,0
1539544981.818,73.730,312.012,-618.164,-830.078,146.973,0
1539544981.822,86.426,6.348,-869.141,-983.398,52.734,0
1539544981.826,84.473,0.488,-910.645,-961.426,58.105,0
1539544981.830,72.266,224.121,-696.289,-969.238,154.785,0
1539544981.834,58.594,219.238,-621.094,-961.426,174.805,0
1539544981.838,66.406,19.043,-832.031,-986.328,79.102,0
1539544981.842,70.801,8.789,-906.738,-882.324,47.363,0
1539544981.846,74.707,101.074,-774.414,-784.180,143.066,0
1539544981.850,72.266,131.348,-664.062,-589.355,187.500,0
1539544981.854,79.590,-32.715,-778.320,-236.816,137.207,0
1539544981.857,83.008,-125.000,-939.453,-644.043,91.797,0
1539544981.861,69.824,208.496,-629.395,-1000.000,161.621,0
1539544981.865,88.379,278.320,-379.395,-951.660,241.699,0
1539544981.869,89.355,120.605,-510.742,-965.332,230.957,0
1539544981.873,49.805,84.473,-638.672,-970.215,183.105,0
1539544981.877,60.059,186.523,-497.559,-969.238,204.590,0
1539544981.881,79.102,227.051,-373.535,-969.238,262.207,0
1539544981.885,70.801,187.988,-406.738,-969.238,244.629,0
1539544981.889,84.473,123.535,-433.594,-969.238,164.551,0
1539544981.893,92.285,73.242,-385.254,-969.238,138.672,0
1539544981.897,67.383,146.973,-123.047,-969.238,214.355,0
1539544981.900,76.660,85.938,-31.738,-969.238,220.703,0
1539544981.904,80.078,178.223,187.012,-969.238,173.340,0
1539544981.908,73.730,354.492,673.340,-969.238,185.059,0
1539544981.912,87.402,255.371,937.988,-969.238,234.375,0
1539544981.916,101.074,276.367,996.582,-969.238,277.832,0
1539544981.920,103.027,353.516,994.141,-969.238,268.555,0
1539544981.924,123.047,292.480,999.512,-969.238,221.191,0
1539544981.928,134.277,272.949,999.512,-969.238,243.652,1
1539544981.932,103.516,319.336,999.512,-969.238,299.316,0
1539544981.936,96.191,280.273,999.512,-969.238,252.441,0
1539544981.939,108.398,125.488,999.512,-969.238,183.105,0
1539544981.943,104.980,41.504,999.512,-969.238,185.059,0
1539544981.947,79.590,141.113,999.512,-969.238,207.031,0
1539544981.951,66.406,367.188,999.512,-969.238,225.098,0
1539544981.955,73.730,322.754,-1000.000,-969.238,167.480,0
1539544981.959,68.848,229.980,996.094,-969.238,117.188,0
1539544981.963,55.176,350.586,-999.023,-969.238,173.828,0
1539544981.967,81.543,387.695,991.699,-969.238,194.824,0
1539544981.971,78.613,283.203,879.883,-969.238,110.352,0
1539544981.975,27.832,303.223,827.148,-969.238,88.867,0
1539544981.979,30.273,371.094,938.965,-972.168,137.695,0
1539544981.982,36.621,399.902,-964.844,-943.359,188.477,0
1539544981.986,30.762,221.680,891.602,-995.117,172.852,0
1539544981.990,32.715,-72.754,429.199,-747.070,84.961,0
1539544981.994,24.902,118.164,640.625,25.391,144.043,0
1539544981.998,3.906,376.465,-939.453,895.508,275.879,0
1539544982.002,0.977,156.738,941.895,687.500,253.418,0
1539544982.006,12.695,8.789,697.266,-676.758,186.523,0
1539544982.010,1.953,179.688,640.137,-1000.000,204.102,0
1539544982.014,-5.859,356.934,737.305,-917.480,280.273,0
1539544982.018,7.324,312.988,582.031,-977.051,296.387,0
1539544982.022,27.344,158.203,287.598,-969.238,245.117,0
1539544982.025,34.180,82.031,165.039,-969.238,238.281,0
1539544982.029,32.227,115.723,235.352,-969.238,305.176,0
1539544982.033,66.406,17.090,94.238,-969.238,359.375,0
1539544982.037,83.984,-124.023,-245.605,-969.238,300.293,0
1539544982.041,54.199,47.363,-166.992,-969.238,298.828,0
1539544982.045,56.152,127.930,-77.637,-969.238,362.305,0
1539544982.049,71.777,95.215,-292.480,-969.238,384.277,0
1539544982.053,84.961,244.629,-395.508,-969.238,395.508,0
1539544982.057,91.309,358.887,-458.008,-969.238,341.797,0
1539544982.061,84.473,420.410,-505.371,-969.238,352.539,0
1539544982.064,81.543,511.230,-415.039,-969.238,447.754,0
1539544982.068,89.355,551.758,-399.902,-969.238,461.914,0
1539544982.072,110.352,446.777,-522.949,-969.238,388.672,0
1539544982.076,97.656,227.539,-584.473,-969.238,378.906,0
1539544982.080,58.105,58.105,-533.691,-969.238,463.379,0
1539544982.084,56.152,-60.547,-501.465,-969.238,509.277,0
1539544982.088,65.430,-175.781,-546.387,-969.238,464.844,0
1539544982.092,51.270,-245.605,-553.223,-969.238,413.574,0
1539544982.096,55.664,-328.613,-610.840,-969.238,431.641,0
1539544982.100,57.617,-150.391,-346.191,-969.238,501.465,0
1539544982.104,10.742,-21.973,-54.688,-969.238,498.047,0
1539544982.107,-4.883,-201.660,-221.191,-969.238,431.152,0
1539544982.111,8.301,-152.344,-124.512,-969.238,472.168,0
1539544982.115,9.766,20.508,135.742,-967.285,527.832,0
1539544982.119,27.344,67.383,153.320,-971.191,516.602,0
1539544982.123,29.785,-68.848,-106.445,-956.055,434.082,0
1539544982.127,-15.137,-166.992,-270.508,-907.715,420.898,0
1539544982.131,-41.016,-141.602,-200.195,-859.863,499.023,0
1539544982.135,-35.156,-122.559,-97.656,-824.219,505.859,0
1539544982.139,2.441,-364.746,-417.969,-762.207,409.180,0
1539544982.143,34.668,-488.281,-781.738,-679.199,357.910,0
1539544982.147,28.320,-118.164,-376.953,-623.047,453.613,0
1539544982.150,23.438,-83.008,-244.629,-608.398,468.262,0
1539544982.154,52.246,-287.598,-604.492,-578.125,366.211,0
1539544982.158,59.570,-269.531,-783.691,-533.691,302.246,0
1539544982.162,28.809,-45.898,-612.305,-554.199,359.863,0
1539544982.166,13.672,49.805,-530.762,-559.570,420.898,0
1539544982.170,6.348,-21.973,-715.332,-525.391,373.047,0
1539544982.174,8.789,-139.160,-949.219,-486.328,283.691,0
1539544982.178,-0.977,-22.949,-895.996,-469.238,295.898,0
1539544982.182,-16.602,148.926,-724.609,-457.031,367.188,0
1539544982.186,-9.766,-87.402,-903.320,-457.031,308.594,0
1539544982.189,-1.465,-104.004,-990.723,-450.684,214.844,0
1539544982.193,8.301,84.961,-958.496,-416.504,240.723,0
1539544982.197,13.672,-34.668,-970.703,-378.906,300.293,0
1539544982.201,23.926,-173.340,-969.238,-351.074,275.879,0
1539544982.205,38.086,-92.773,-969.238,-329.102,211.914,0
1539544982.209,41.992,41.504,-969.238,-304.199,206.055,0
1539544982.213,43.457,83.008,-969.238,-276.367,261.230,0
1539544982.217,72.754,5.371,-969.238,-254.395,269.043,0
1539544982.221,74.219,-190.918,-970.703,-254.883,192.383,0
1539544982.225,40.039,-186.035,-962.891,-265.625,154.297,0
1539544982.229,69.336,-148.438,-972.168,-246.582,176.270,0
1539544982.232,79.590,-158.203,-943.359,-221.191,212.891,0
1539544982.236,59.082,93.262,-716.797,-220.215,229.004,0
1539544982.240,66.895,104.980,-462.402,-216.797,177.734,0
1539544982.244,80.566,123.047,-200.195,-206.543,197.754,0
1539544982.248,78.125,298.340,226.562,-194.336,287.598,0
1539544982.252,74.707,387.695,549.805,-187.988,311.523,0
1539544982.256,84.961,180.664,425.781,-163.086,227.051,0
1539544982.260,87.891,117.676,423.828,-146.484,205.566,0
1539544982.264,85.938,285.156,779.785,-153.809,269.043,0
1539544982.268,102.051,175.293,789.062,-152.832,258.301,0
1539544982.272,122.559,19.043,638.672,-128.906,192.383,0
1539544982.275,122.070,-50.293,599.121,-116.699,159.668,0
1539544982.279,112.305,197.266,869.141,-117.676,228.516,0
1539544982.283,118.164,423.828,-975.586,-98.633,282.227,0
1539544982.287,116.699,214.355,986.328,-88.379,199.707,0
1539544982.291,104.492,174.805,-1000.000,-102.051,126.465,0
1539544982.295,85.938,414.062,999.512,-89.844,191.406,0
1539544982.299,75.195,418.457,999.512,-95.703,225.586,0
1539544982.303,80.078,235.840,999.512,-124.023,180.664,0
1539544982.307,70.801,158.691,999.512,-86.914,125.000,0
1539544982.311,61.035,229.492,999.512,-60.547,131.348,0
1539544982.314,61.523,252.930,999.512,-106.445,198.730,0
1539544982.318,64.941,123.047,999.512,-116.211,180.664,0
1539544982.322,54.199,73.730,999.512,-106.445,73.242,0
1539544982.326,33.691,367.188,999.512,-96.680,78.613,0
1539544982.330,32.715,465.820,999.512,-78.613,142.090,0
1539544982.334,55.664,352.051,999.512,-80.566,130.859,0
1539544982.338,36.133,263.184,999.512,-108.398,55.664,0
1539544982.342,-19.043,279.785,999.512,-142.090,31.738,0
1539544982.346,-39.551,312.500,999.512,-155.762,92.773,0
1539544982.350,-46.387,231.445,999.512,-158.203,112.793,0
1539544982.354,-62.500,170.410,998.047,-167.480,52.734,0
1539544982.357,-75.684,169.434,998.047,-177.246,-1.465,0
1539544982.361,-77.148,170.898,-993.164,-174.805,19.531,0
1539544982.365,-82.031,141.113,923.828,-150.879,59.082,0
1539544982.369,-87.891,296.387,924.316,-153.809,40.527,0
1539544982.373,-97.168,367.676,878.906,-166.992,-31.250,0
1539544982.377,-96.191,281.250,802.734,-154.785,-18.066,0
1539544982.381,-87.402,277.344,890.137,-174.805,42.480,0
1539544982.385,-120.117,305.176,959.961,-208.496,44.922,0
1539544982.389,-142.090,228.027,850.098,-182.617,0.488,0
1539544982.393,-148.438,167.969,668.945,-173.828,-19.531,0
1539544982.397,-151.367,307.617,662.598,-175.293,13.672,0
1539544982.400,-133.301,562.500,750.977,-167.480,54.688,0
1539544982.404,-115.234,666.992,665.527,-147.461,34.668,0
1539544982.408,-125.488,495.605,223.145,-136.230,-28.809,0
1539544982.412,-136.719,550.293,124.023,-145.996,16.113,0
1539544982.416,-139.648,735.352,528.320,-137.207,104.980,0
1539544982.420,-101.074,522.949,530.273,-124.023,79.590,0
1539544982.424,-84.473,242.188,272.461,-108.887,8.301,0
1539544982.428,-155.762,124.512,341.797,-131.836,47.852,0
1539544982.432,-177.246,41.992,481.934,-129.883,123.535,0
1539544982.436,-161.133,-29.297,480.469,-132.324,114.258,0
1539544982.439,-165.527,-124.512,368.652,-149.902,53.711,0
1539544982.443,-168.945,-155.762,370.117,-142.090,65.918,0
1539544982.447,-160.645,-128.418,635.254,-136.719,139.648,0
1539544982.451,-175.781,-238.770,770.020,-134.766,165.039,0
1539544982.455,-178.711,-501.465,551.270,-105.957,101.074,0
1539544982.459,-174.805,-523.438,455.566,-109.375,83.008,0
1539544982.463,-185.059,-253.418,775.391,-135.254,167.969,0
1539544982.467,-179.688,-119.629,892.578,-115.723,191.406,0
1539544982.471,-163.086,-138.184,495.605,-83.496,113.281,0
1539544982.475,-129.883,93.750,535.156,-67.383,92.773,0
1539544982.479,-124.023,254.883,918.457,-83.984,165.039,0
1539544982.482,-158.203,96.680,971.191,-110.840,218.750,0
1539544982.486,-148.926,-114.746,883.301,-71.289,213.867,1
1539544982.490,-132.324,-194.824,884.766,-59.082,177.734,0
1539544982.494,-128.906,-125.488,975.586,-72.266,189.453,0
1539544982.498,-115.723,-149.414,-997.559,-58.594,232.910,0
1539544982.502,-99.121,-252.441,-992.188,-41.992,229.980,0
1539544982.506,-95.703,-314.453,928.223,-29.785,178.223,0
1539544982.510,-108.398,-209.961,935.059,-38.574,176.758,0
1539544982.514,-107.422,-230.957,952.148,-6.348,224.121,0
1539544982.518,-128.906,-302.734,896.484,-20.996,236.816,0
1539544982.522,-117.188,-146.973,998.535,-75.195,201.172,0
1539544982.525,-108.398,-128.906,-995.117,-71.289,189.941,0
1539544982.529,-139.160,-147.461,989.746,-78.613,233.887,0
1539544982.533,-139.648,-97.656,998.535,-89.355,271.484,0
1539544982.537,-139.160,-82.520,988.281,-82.520,256.836,0
1539544982.541,-133.789,-184.082,805.664,-76.660,190.918,0
1539544982.545,-116.211,-187.012,620.605,-57.129,226.074,0
1539544982.549,-107.910,-123.535,570.312,-54.199,290.039,0
1539544982.553,-106.445,-158.203,348.633,-65.430,245.605,0
1539544982.557,-89.355,-234.375,43.457,-50.781,177.246,0
1539544982.561,-80.566,-275.879,-233.398,-46.387,174.316,0
1539544982.564,-96.680,-74.707,-150.879,-62.988,225.586,0
1539544982.568,-92.773,71.289,13.672,-61.035,242.676,0
1539544982.572,-83.496,-127.441,-332.520,-46.387,179.199,0
1539544982.576,-82.520,-137.207,-519.531,-47.852,179.688,0
1539544982.580,-65.918,19.043,-398.438,-36.621,238.281,0
1539544982.584,-51.758,-31.738,-515.625,-15.137,216.309,0
1539544982.588,-35.156,-162.109,-798.340,-5.859,151.367,0
1539544982.592,-27.344,-174.316,-925.293,0.488,113.770,0
1539544982.596,-26.855,-145.996,-925.781,-1.953,146.484,0
1539544982.600,-27.832,-57.129,-890.625,-9.766,213.379,0
1539544982.604,-31.250,-205.078,-891.113,2.930,146.484,0
1539544982.607,-30.273,-306.641,-985.352,-20.996,59.082,0
1539544982.611,-22.949,4.395,-853.516,-36.133,119.629,0
1539544982.615,-41.992,64.453,-623.535,-20.996,188.477,0
1539544982.619,-45.898,-71.777,-692.871,-30.762,152.832,0
1539544982.623,-38.086,-101.562,-752.930,-33.691,88.867,0
1539544982.627,-43.457,-6.836,-571.777,-17.578,100.586,0
1539544982.631,-37.109,7.324,-477.539,-12.207,143.555,0
1539544982.635,-28.320,-73.730,-626.465,-26.855,118.164,0
1539544982.639,-20.996,-98.633,-795.898,-21.484,43.457,0
1539544982.643,-10.742,-121.582,-914.551,-11.719,9.766,0
1539544982.647,-17.090,-102.051,-976.562,-4.883,47.852,0
1539544982.650,-12.695,-144.531,-964.355,1.465,42.969,0
1539544982.654,21.973,-125.000,-969.727,7.324,-46.875,0
1539544982.658,36.621,45.410,-969.238,30.762,-72.266,0
1539544982.662,27.344,13.672,-969.238,34.180,-51.270,0
1539544982.666,20.508,31.250,-969.238,33.691,-27.344,0
1539544982.670,60.547,114.746,-969.238,34.180,-48.340,0
1539544982.674,71.289,77.148,-969.238,41.016,-104.492,0
1539544982.678,20.508,92.285,-969.238,39.551,-70.312,0
1539544982.682,14.648,138.672,-969.238,48.340,-30.762,0
1539544982.686,40.039,142.090,-969.727,78.125,-62.500,0
1539544982.689,61.523,66.406,-966.309,74.219,-116.211,0
1539544982.693,78.125,-2.441,-970.703,56.641,-118.164,0
1539544982.697,75.684,62.500,-968.750,67.871,-83.984,0
1539544982.701,59.570,306.641,-867.188,80.078,-41.504,0
1539544982.705,87.402,268.555,-876.465,86.426,-80.078,0
1539544982.709,92.285,143.555,-986.328,69.824,-132.324,0
1539544982.713,72.754,215.820,-942.383,62.012,-100.586,0
1539544982.717,65.430,241.211,-905.762,64.941,-53.711,0
1539544982.721,76.172,120.605,-960.449,68.848,-98.145,0
1539544982.725,77.637,105.957,-985.840,73.730,-159.668,0
1539544982.729,42.969,233.398,-902.832,56.641,-101.562,0
1539544982.732,32.227,279.785,-790.527,62.500,-44.434,0
1539544982.736,54.199,117.188,-885.254,86.426,-91.309,0
1539544982.740,60.547,-97.656,-995.605,51.758,-193.848,0
1539544982.744,31.738,115.723,-890.625,9.277,-166.016,0
1539544982.748,32.715,333.496,-708.008,26.367,-98.145,0
1539544982.752,40.527,173.340,-792.480,55.176,-124.023,0
1539544982.756,38.086,103.027,-921.875,56.641,-163.086,0
1539544982.760,27.344,186.035,-804.199,27.832,-170.898,0
1539544982.764,8.301,224.609,-649.414,5.371,-134.766,0
1539544982.768,-19.043,144.043,-682.129,-23.926,-124.512,0
1539544982.772,-24.902,108.887,-731.445,-22.949,-169.434,0
1539544982.775,-16.113,115.723,-722.656,-3.906,-203.613,0
1539544982.779,-20.020,170.898,-592.285,-35.156,-154.785,0
1539544982.783,-18.066,196.289,-516.113,-35.645,-129.883,0
1539544982.787,-16.113,180.664,-601.074,-15.137,-180.664,0
1539544982.791,-16.113,350.098,-417.480,-25.391,-207.520,0
1539544982.795,-21.973,542.969,-37.598,-36.133,-151.855,0
1539544982.799,-28.320,394.531,-47.852,-33.691,-112.305,0
1539544982.803,-18.066,253.418,-179.199,-44.434,-163.086,0
1539544982.807,-29.297,424.316,125.488,-52.246,-201.172,0
1539544982.811,-48.340,454.590,354.492,-49.805,-176.758,0
1539544982.814,-63.965,432.617,442.383,-58.594,-131.836,0
1539544982.818,-51.758,436.035,502.930,-70.312,-136.230,0
1539544982.822,-39.551,321.777,511.719,-67.871,-180.176,0
1539544982.826,-68.359,160.156,541.504,-91.797,-174.316,0
1539544982.830,-63.965,78.125,611.816,-98.145,-106.445,0
1539544982.834,-56.152,61.523,663.574,-86.914,-80.078,0
1539544982.838,-56.152,17.090,612.305,-75.684,-146.973,0
1539544982.842,-41.016,-27.832,584.961,-56.641,-195.312,0
1539544982.846,-40.527,-112.305,551.270,-61.523,-158.203,0
1539544982.850,-40.039,9.766,754.883,-65.430,-104.980,0
1539544982.854,-33.203,135.254,-973.145,-60.059,-115.234,0
1539544982.857,-32.227,-35.645,975.586,-74.707,-151.855,0
1539544982.861,-44.922,1.465,977.051,-72.754,-112.305,0
1539544982.865,-41.504,90.332,-996.582,-50.293,-75.195,0
1539544982.869,-34.668,93.750,999.023,-79.590,-68.848,0
1539544982.873,-22.949,21.973,997.559,-88.867,-127.930,0
1539544982.877,-15.625,1.953,999.512,-78.613,-129.395,0
1539544982.881,-20.996,131.836,994.141,-62.500,-40.527,0
1539544982.885,-8.789,196.289,-985.352,-50.293,-42.969,0
1539544982.889,14.648,62.988,942.871,-49.805,-100.586,0
1539544982.893,17.090,46.875,909.668,-46.387,-84.473,0
1539544982.897,-8.301,306.152,-995.117,-37.109,-2.930,0
1539544982.900,4.883,320.801,-994.629,-35.645,28.320,0
1539544982.904,32.227,104.004,957.031,-34.180,-26.855,0
1539544982.908,45.410,127.930,971.680,-0.977,-33.203,0
1539544982.912,48.340,323.242,-993.652,-30.762,44.434,0
1539544982.916,46.387,270.508,997.070,-56.152,90.332,0
1539544982.920,62.500,128.906,-998.535,-20.020,57.617,0
1539544982.924,51.758,24.902,981.934,-10.742,19.043,0
1539544982.928,31.738,156.250,988.281,-14.160,90.820,0
1539544982.932,55.176,251.465,-979.004,-4.883,153.320,0
1539544982.936,73.730,16.113,800.293,-1.953,101.562,0
1539544982.939,106.934,91.309,734.375,-7.812,74.219,0
1539544982.943,113.770,298.828,950.684,25.879,109.863,0
1539544982.947,89.844,200.195,837.402,47.363,153.320,0
1539544982.951,105.469,168.945,659.668,37.109,176.758,0
1539544982.955,111.816,253.906,595.703,21.484,150.879,0
1539544982.959,123.535,244.629,462.402,27.344,135.254,0
1539544982.963,108.398,208.984,302.734,37.598,180.664,0
1539544982.967,83.496,221.680,214.355,24.902,230.957,0
1539544982.971,84.473,155.762,-18.555,31.250,202.637,0
1539544982.975,87.402,124.512,-312.988,6.836,157.715,0
1539544982.979,113.770,145.020,-525.879,12.695,176.758,0
1539544982.982,105.469,195.312,-660.156,34.668,231.934,0
1539544982.986,64.453,368.652,-513.672,19.531,258.789,0
1539544982.990,67.383,263.184,-642.578,22.461,200.684,0
1539544982.994,85.449,185.059,-777.832,22.949,219.238,0
1539544982.998,84.473,274.902,-647.949,44.434,316.895,0
1539544983.002,72.266,267.090,-650.391,55.664,320.312,0
1539544983.006,63.965,65.918,-893.555,22.949,241.211,0
1539544983.010,64.453,40.039,-977.539,37.109,242.676,0
1539544983.014,75.195,173.828,-939.453,34.668,311.523,0
1539544983.018,73.730,93.262,-959.961,-2.441,325.684,0
1539544983.022,62.500,-6.348,-972.656,11.230,284.180,0
1539544983.025,62.500,-102.539,-967.773,36.133,238.770,0
1539544983.029,50.293,63.477,-969.727,36.133,293.457,0
1539544983.033,87.402,277.832,-969.238,31.250,387.207,0
1539544983.037,91.797,65.430,-969.238,29.297,333.496,0
1539544983.041,58.594,-47.852,-969.238,56.641,267.578,0
1539544983.045,54.688,116.211,-969.238,59.082,329.590,0
1539544983.049,46.387,146.484,-969.238,34.180,373.535,0
1539544983.053,59.082,16.113,-969.238,54.199,342.773,0
1539544983.057,65.430,-25.391,-969.238,72.754,292.480,0
1539544983.061,71.777,46.875,-969.238,52.734,296.387,0
1539544983.064,71.777,29.297,-969.238,53.223,340.820,0
1539544983.068,74.707,-137.695,-969.238,93.750,315.430,0
1539544983.072,64.941,-174.316,-969.238,75.195,243.652,0
1539544983.076,31.250,25.879,-969.238,86.914,249.512,0
1539544983.080,23.926,122.070,-969.238,149.902,332.520,0
1539544983.084,52.246,77.637,-969.238,145.020,343.750,0
1539544983.088,54.199,11.719,-969.238,106.445,256.836,0
1539544983.092,51.270,46.387,-969.238,225.098,220.215,0
1539544983.096,42.969,70.801,-969.238,390.625,268.555,0
1539544983.100,34.180,18.066,-969.238,273.438,285.645,0
1539544983.104,52.246,-8.789,-969.238,144.531,230.957,0
1539544983.107,32.715,-8.301,-969.238,185.059,172.852,0
1539544983.111,50.293,-51.758,-969.238,251.953,172.363,0
1539544983.115,116.699,-135.254,-969.238,155.273,182.129,0
1539544983.119,59.570,-15.625,-969.238,70.801,159.668,0
1539544983.123,-5.859,97.168,-969.238,34.180,125.977,0
1539544983.127,30.762,41.992,-969.238,25.391,111.816,0
1539544983.131,40.039,127.441,-969.238,34.668,172.852,0
1539544983.135,50.293,236.816,-969.238,54.199,182.129,0
1539544983.139,73.730,184.082,-969.238,48.340,107.910,0
1539544983.143,74.707,88.867,-969.238,108.398,83.496,0
1539544983.147,40.527,115.234,-969.238,164.551,126.953,0
1539544983.150,45.410,157.715,-969.238,313.965,141.602,0
1539544983.154,78.125,90.820,-969.238,404.297,79.590,0
1539544983.158,58.594,-76.660,-969.238,437.012,30.273,1
1539544983.162,39.551,-9.766,-969.238,627.441,84.961,0
1539544983.166,54.688,248.047,-969.238,478.027,143.555,0
1539544983.170,91.309,174.805,-969.238,198.242,88.867,0
1539544983.174,95.215,-33.691,-969.238,146.484,4.883,0
1539544983.178,64.941,62.988,-969.238,140.625,49.805,0
1539544983.182,55.176,228.516,-969.238,66.895,143.555,0
1539544983.186,65.918,185.547,-969.238,-41.016,111.328,0
1539544983.189,80.566,129.883,-969.238,-46.875,33.203,0
1539544983.193,77.148,214.844,-969.238,-0.488,59.570,0
1539544983.197,98.633,270.020,-969.238,-68.359,126.465,0
1539544983.201,100.586,196.289,-969.238,111.816,151.855,0
1539544983.205,73.730,17.578,-969.238,209.473,78.125,0
1539544983.209,88.379,32.227,-969.238,-3.906,51.758,0
1539544983.213,81.543,260.742,-969.238,-43.457,129.883,0
1539544983.217,54.688,230.469,-969.238,-50.293,152.344,0
1539544983.221,51.758,9.277,-969.238,-33.691,82.031,0
1539544983.225,76.172,211.914,-969.238,-34.180,24.902,0
1539544983.229,68.359,633.789,-969.238,-47.363,87.402,0
1539544983.232,25.879,916.504,-969.238,-26.855,151.855,0
1539544983.236,31.250,994.629,-969.238,-31.738,97.656,0
1539544983.240,29.785,993.164,-969.238,-48.340,14.160,0
1539544983.244,46.387,999.512,-969.238,-46.875,48.828,0
1539544983.248,24.414,999.512,-969.238,-54.199,127.930,0
1539544983.252,7.812,999.512,-969.238,-29.785,126.465,0
1539544983.256,16.602,999.512,-969.238,-51.270,62.500,0
1539544983.260,-23.438,999.512,-969.238,-102.051,31.250,0
1539544983.264,-39.062,999.512,-969.238,-85.938,62.012,0
1539544983.268,-52.734,999.512,-969.238,-100.098,87.891,0
1539544983.272,-57.617,-1000.000,-969.238,-115.723,54.199,0
1539544983.275,-64.941,998.535,-969.238,-124.512,15.137,0
1539544983.279,-110.840,985.352,-969.238,-164.062,51.270,0
1539544983.283,-104.492,-985.840,-969.238,-155.273,91.797,0
1539544983.287,-79.102,793.457,-969.238,-130.859,62.012,0
1539544983.291,-96.680,261.719,-969.238,-141.602,-15.625,0
1539544983.295,-100.586,-104.980,-969.238,-152.344,9.766,0
1539544983.299,-81.543,-304.688,-969.238,-124.023,79.590,0
1539544983.303,-65.918,-479.492,-969.238,-73.730,29.297,0
1539544983.307,-21.973,-710.938,-969.238,-80.566,-46.387,0
1539544983.311,-41.992,-943.359,-969.238,-120.117,-43.457,0
1539544983.314,-50.781,-973.145,-969.238,-93.750,19.531,0
1539544983.318,-11.230,-961.914,-969.238,-43.457,33.203,0
1539544983.322,-10.742,-970.703,-969.238,-44.434,-43.457,0
1539544983.326,1.953,-969.238,-969.238,-57.129,-65.430,0
1539544983.330,20.508,-969.238,-969.238,-28.809,14.648,0
1539544983.334,33.203,-969.238,-969.238,-6.836,45.410,0
1539544983.338,48.828,-969.238,-969.238,-12.207,-7.812,0
1539544983.342,69.336,-969.238,-969.238,28.320,-62.500,0
1539544983.346,88.379,-969.238,-969.238,88.379,-18.066,0
1539544983.350,108.887,-969.238,-969.238,41.504,35.156,0
1539544983.354,118.652,-966.309,-969.238,21.973,-34.668,0
1539544983.357,90.332,-976.562,-969.238,53.711,-105.957,0
1539544983.361,90.332,-937.012,-969.238,50.781,-11.230,0
1539544983.365,114.746,-882.324,-969.238,67.871,60.059,0
1539544983.369,122.559,-941.895,-969.238,87.891,37.598,0
1539544983.373,139.648,-960.938,-969.238,84.473,-33.203,0
1539544983.377,139.648,-831.055,-969.238,84.961,-51.270,0
1539544983.381,143.555,-717.773,-969.238,92.285,19.531,0
1539544983.385,147.949,-733.398,-969.238,80.566,25.391,0
1539544983.389,145.508,-727.051,-969.238,98.633,-47.852,0
1539544983.393,175.781,-704.102,-969.238,126.953,-61.035,0
1539544983.397,168.457,-646.973,-969.238,132.812,3.906,0
1539544983.400,154.785,-671.387,-969.238,130.859,18.555,0
1539544983.404,166.504,-547.852,-969.238,105.469,-24.414,0
1539544983.408,166.992,-333.008,-969.238,111.328,-33.691,0
1539544983.412,200.684,-387.207,-969.238,138.184,0.977,0
1539544983.416,169.434,-319.824,-969.238,117.188,49.805,0
1539544983.420,116.699,-203.125,-969.238,103.516,28.320,0
1539544983.424,143.066,-263.672,-969.238,132.812,-49.316,0
1539544983.428,157.227,-244.141,-969.238,142.578,-7.324,0
1539544983.432,164.551,-135.254,-969.238,133.789,76.660,0
1539544983.436,160.156,-128.418,-970.215,133.301,35.645,0
1539544983.439,163.574,-239.258,-964.355,141.602,-28.320,0
1539544983.443,165.039,-345.703,-973.633,141.602,-49.805,0
1539544983.447,154.297,-240.723,-954.590,129.395,0.488,0
1539544983.451,145.508,49.316,-803.711,125.000,61.035,0
1539544983.455,158.203,14.648,-781.250,124.023,11.230,0
1539544983.459,151.855,-122.070,-938.477,116.211,-41.504,0
1539544983.463,114.746,-22.461,-826.172,117.188,2.441,0
1539544983.467,131.836,22.461,-702.637,130.859,41.992,0
1539544983.471,156.738,-103.516,-839.355,135.742,-1.953,0
1539544983.475,132.324,-125.977,-939.941,123.535,-63.965,0
1539544983.479,123.535,-5.859,-824.219,111.816,-41.016,0
1539544983.482,141.602,119.141,-558.594,113.281,48.340,0
1539544983.486,128.906,-30.762,-637.695,116.211,26.855,0
1539544983.490,140.625,-288.086,-958.496,113.281,-88.867,0
1539544983.494,142.090,-38.574,-728.027,91.309,-62.988,0
1539544983.498,146.973,253.906,-270.508,70.801,46.875,0
1539544983.502,139.160,104.492,-299.805,79.590,32.715,0
1539544983.506,129.883,18.066,-418.457,85.449,-44.922,0
1539544983.510,198.730,181.152,-187.012,131.348,-12.695,0
1539544983.514,182.617,246.094,20.996,182.129,44.434,0
1539544983.518,108.887,129.395,-83.496,127.441,31.738,0
1539544983.522,73.242,83.496,-185.547,55.176,-15.137,0
1539544983.525,43.457,49.316,-269.043,58.594,-67.383,0
1539544983.529,53.711,109.375,-180.664,83.984,-25.391,0
1539544983.533,72.266,65.430,-171.875,106.445,0.488,0
1539544983.537,62.500,5.371,-240.234,85.938,-57.129,0
1539544983.541,35.156,223.145,60.547,78.613,-79.102,0
1539544983.545,14.648,325.195,368.652,102.539,-20.020,0
1539544983.549,4.395,205.078,387.695,81.543,8.789,0
1539544983.553,-5.371,166.504,416.504,77.637,-25.391,0
1539544983.557,10.742,244.629,621.094,88.379,-66.406,0
1539544983.561,32.715,234.863,804.688,64.941,-61.523,0
1539544983.564,29.297,236.328,958.496,76.172,7.812,0
1539544983.568,30.273,231.934,994.629,59.082,8.301,0
1539544983.572,42.480,159.668,962.402,28.809,-68.848,0
1539544983.576,53.711,94.238,769.531,46.875,-77.637,0
1539544983.580,43.457,59.082,478.027,53.711,-2.441,0
1539544983.584,18.555,4.883,143.066,44.434,10.742,0
1539544983.588,18.066,-71.289,-252.441,33.691,-72.754,0
1539544983.592,53.711,-62.500,-464.844,34.668,-89.355,0
1539544983.596,51.758,-61.523,-609.375,37.598,-49.316,0
1539544983.600,-9.766,134.766,-452.637,9.766,0.977,0
1539544983.604,-13.672,246.582,-280.273,-14.160,-20.508,0
1539544983.607,25.391,32.715,-596.680,2.441,-117.676,0
1539544983.611,44.434,100.586,-607.422,30.762,-61.523,0
1539544983.615,32.715,260.742,-432.129,20.508,25.879,0
1539544983.619,30.762,189.453,-624.023,12.207,-2.930,0
1539544983.623,46.875,53.711,-886.719,15.625,-55.664,0
1539544983.627,55.176,-6.836,-973.633,6.836,-68.359,0
1539544983.631,48.828,62.988,-962.891,36.133,-16.602,0
1539544983.635,61.035,172.363,-968.750,49.316,13.184,0
1539544983.639,88.379,-8.301,-969.727,44.434,-73.242,0
1539544983.643,90.332,-66.406,-969.238,66.895,-95.215,0
1539544983.647,88.867,255.859,-969.238,61.035,-14.648,0
1539544983.650,115.234,295.898,-969.238,63.477,29.785,0
1539544983.654,119.629,146.484,-969.238,59.082,-18.555,0
1539544983.658,65.918,148.438,-969.238,60.547,-55.176,0
1539544983.662,54.688,264.648,-969.238,54.688,0.000,0
1539544983.666,80.078,277.344,-969.238,49.805,58.105,0
1539544983.670,108.398,177.734,-969.238,62.012,25.391,0
1539544983.674,96.680,21.973,-969.238,60.059,-73.242,0
1539544983.678,64.941,124.023,-969.238,80.078,-51.758,0
1539544983.682,77.637,287.598,-969.238,50.293,26.367,0
1539544983.686,97.168,99.121,-969.238,25.879,-3.906,0
1539544983.689,81.055,166.016,-969.238,21.484,-62.012,0
1539544983.693,81.055,411.621,-969.238,24.902,-32.715,0
1539544983.697,95.703,333.496,-969.238,68.359,10.742,0
1539544983.701,83.984,274.414,-969.238,91.309,24.414,0
1539544983.705,67.871,354.004,-969.238,44.922,-33.203,0
1539544983.709,62.988,356.445,-969.238,42.480,-65.430,0
1539544983.713,62.988,402.344,-969.238,76.660,30.762,0
1539544983.717,51.270,476.074,-969.238,61.035,78.125,0
1539544983.721,61.035,335.938,-969.238,58.594,-6.836,0
1539544983.725,69.824,227.539,-969.238,47.852,-58.594,0
1539544983.729,71.777,133.789,-969.238,35.156,-27.832,0
1539544983.732,65.918,92.773,-969.238,41.992,24.414,0
1539544983.736,69.824,249.512,-968.262,49.805,37.598,0
1539544983.740,71.777,111.328,-963.867,69.336,-41.992,0
1539544983.744,59.570,13.672,-982.910,92.773,-34.180,0
1539544983.748,61.523,120.605,-878.418,75.195,59.570,0
1539544983.752,73.730,185.547,-746.582,65.430,89.355,0
1539544983.756,83.984,-4.395,-887.207,50.293,10.742,0
1539544983.760,64.941,-78.125,-956.055,50.293,-14.160,0
1539544983.764,62.500,83.984,-781.738,53.223,63.965,0
1539544983.768,65.918,-0.488,-814.453,49.316,93.750,0
1539544983.772,60.547,-136.230,-938.477,54.199,46.875,0
1539544983.775,67.871,-242.676,-989.258,63.477,-9.766,1
1539544983.779,70.801,-41.016,-852.051,73.730,55.664,0
1539544983.783,73.242,204.102,-572.754,33.203,145.508,0
1539544983.787,77.148,-23.438,-709.961,54.688,92.773,0
1539544983.791,46.875,-179.688,-985.840,89.355,-5.371,0
1539544983.795,45.898,27.832,-829.590,25.391,50.781,0
1539544983.799,49.316,132.324,-635.742,7.324,144.043,0
1539544983.803,41.016,-37.598,-815.918,34.180,91.309,0
1539544983.807,70.312,-130.371,-985.352,62.988,-5.371,0
1539544983.811,65.430,-15.625,-963.867,58.105,4.395,0
1539544983.814,42.969,15.137,-966.309,36.621,71.289,0
1539544983.818,57.617,-114.746,-969.727,51.758,67.383,0
1539544983.822,48.340,-147.949,-969.238,60.547,-3.418,0
1539544983.826,8.301,94.238,-969.238,30.273,-14.160,0
1539544983.830,37.109,174.805,-969.238,38.574,56.152,0
1539544983.834,49.316,46.387,-969.238,58.105,70.801,0
1539544983.838,22.461,-16.602,-969.238,47.363,15.137,0
1539544983.842,42.480,27.344,-969.238,55.176,-11.719,0
1539544983.846,86.426,63.477,-969.238,53.711,28.809,0
1539544983.850,43.945,55.664,-969.238,51.270,73.730,0
1539544983.854,7.324,64.453,-969.238,45.410,42.969,0
1539544983.857,51.758,72.266,-969.238,21.484,-12.207,0
1539544983.861,64.941,38.086,-969.238,39.062,21.973,0
1539544983.865,49.316,-104.492,-969.238,47.852,49.805,0
1539544983.869,34.668,-4.395,-969.238,67.383,34.668,0
1539544983.873,41.992,55.176,-969.238,105.469,-23.438,0
1539544983.877,42.969,-64.453,-969.238,54.688,-36.621,0
1539544983.881,28.809,116.699,-969.238,17.090,60.547,0
1539544983.885,51.270,309.082,-969.238,32.715,115.234,0
1539544983.889,59.570,224.609,-969.238,44.434,43.457,0
1539544983.893,35.156,107.910,-969.238,64.453,4.395,0
1539544983.897,21.973,161.621,-969.238,97.656,73.242,0
1539544983.900,45.898,208.496,-969.238,29.297,105.957,0
1539544983.904,67.383,106.445,-969.238,499.023,41.992,0
1539544983.908,87.891,-150.391,-969.238,-948.242,-32.227,0
1539544983.912,77.148,-133.301,-969.238,948.730,10.742,0
1539544983.916,37.598,231.934,-969.238,737.305,89.844,0
1539544983.920,62.988,219.238,-969.238,588.379,66.895,0
1539544983.924,78.613,7.812,-969.238,463.867,-11.719,0
1539544983.928,72.754,180.176,-969.238,291.016,28.809,0
1539544983.932,49.316,335.938,-969.238,195.801,106.445,0
1539544983.936,53.711,302.734,-969.238,343.750,81.055,0
1539544983.939,72.266,198.730,-969.238,500.000,-9.277,0
1539544983.943,61.035,220.703,-969.238,505.371,1.465,0
1539544983.947,51.270,303.223,-969.238,382.812,102.051,0
1539544983.951,58.105,167.480,-969.238,149.414,104.004,0
1539544983.955,94.727,-102.051,-969.238,190.918,6.348,0
1539544983.959,74.219,-198.730,-969.238,395.020,-29.297,0
1539544983.963,31.250,-60.059,-969.238,854.980,39.551,0
1539544983.967,53.223,-35.156,-969.238,721.680,77.148,0
1539544983.971,70.312,-262.695,-969.238,-44.922,6.836,0
1539544983.975,63.477,-74.707,-969.238,-232.910,-54.199,0
1539544983.979,53.711,302.246,-969.238,-250.000,3.418,0
1539544983.982,38.086,259.277,-969.238,-244.629,74.219,0
1539544983.986,48.828,116.699,-969.238,-257.324,52.246,0
1539544983.990,70.801,93.750,-969.238,-327.637,-21.973,0
1539544983.994,79.590,202.637,-969.238,-333.008,-14.648,0
1539544983.998,96.191,261.230,-969.238,-301.270,48.340,0
1539544984.002,41.016,187.988,-969.238,-270.996,51.270,0
1539544984.006,29.297,-14.648,-969.238,-270.508,-43.945,0
1539544984.010,57.129,-12.207,-969.238,-255.371,-57.129,0
1539544984.014,104.980,14.160,-969.238,-219.238,31.738,0
1539544984.018,79.102,-44.434,-969.238,-198.242,32.227,0
1539544984.022,9.766,171.875,-969.238,-233.887,-23.438,0
1539544984.025,24.902,229.004,-969.238,-243.164,-37.109,0
1539544984.029,56.641,155.273,-969.238,-187.012,18.555,0
1539544984.033,64.453,116.699,-969.238,-172.363,67.383,0
1539544984.037,39.062,29.297,-969.238,-173.828,37.598,0
1539544984.041,47.363,-139.160,-969.238,-160.645,-27.344,0
1539544984.045,81.055,-245.605,-969.238,-146.484,3.906,0
1539544984.049,75.684,-294.434,-969.238,-126.465,59.570,0
1539544984.053,34.668,-336.914,-969.238,-121.582,35.156,0
1539544984.057,56.152,-385.254,-969.238,-86.914,-55.664,0
1539544984.061,51.758,-396.973,-969.238,-85.938,-67.871,0
1539544984.064,33.203,-156.250,-969.238,-123.047,22.461,0
1539544984.068,56.641,49.805,-969.238,-104.492,47.852,0
1539544984.072,64.941,-190.430,-969.238,-89.844,-38.574,0
1539544984.076,53.711,-238.770,-969.238,-38.574,-42.480,0
1539544984.080,62.012,-47.852,-969.238,4.395,43.945,0
1539544984.084,55.664,-81.055,-969.238,-20.996,75.684,0
1539544984.088,52.246,-263.672,-969.238,-1.953,20.996,0
1539544984.092,58.105,-326.172,-969.238,-13.184,-35.156,0
1539544984.096,73.730,-336.914,-969.238,-43.457,-6.836,0
1539544984.100,63.965,-257.812,-969.238,-47.363,59.082,0
1539544984.104,54.199,-430.176,-969.238,26.855,6.836,0
1539544984.107,73.242,-617.188,-969.238,106.934,-79.590,0
1539544984.111,52.246,-207.520,-969.238,40.527,-6.836,0
1539544984.115,43.945,-75.195,-969.238,-60.547,60.547,0
1539544984.119,52.246,-220.215,-969.238,-61.523,34.180,0
1539544984.123,75.684,-279.297,-969.238,-7.324,-40.527,0
1539544984.127,71.289,-203.613,-969.238,-38.086,-31.738,0
1539544984.131,48.340,-257.324,-969.238,-61.035,21.973,0
1539544984.135,55.664,-318.359,-969.238,-7.324,9.766,0
1539544984.139,70.801,-250.000,-969.238,-12.207,-24.414,0
1539544984.143,79.590,-312.988,-969.238,43.945,-16.113,0
1539544984.147,69.824,-333.496,-969.238,99.609,41.504,0
1539544984.150,62.988,-480.957,-969.238,53.711,20.020,0
1539544984.154,64.453,-392.578,-969.238,23.438,-37.598,0
1539544984.158,82.520,-84.961,-969.238,381.348,-42.969,0
1539544984.162,71.777,-119.141,-969.238,726.562,-12.695,0
1539544984.166,57.617,-84.961,-969.238,660.645,45.898,0
1539544984.170,55.664,-28.809,-969.238,493.164,27.832,0
1539544984.174,71.289,-162.598,-969.238,721.191,-39.062,0
1539544984.178,78.613,-273.438,-969.238,-974.121,-32.227,0
1539544984.182,47.852,-259.766,-969.238,-993.652,18.555,0
1539544984.186,41.504,-209.473,-969.238,862.305,10.742,0
1539544984.189,54.688,-304.688,-969.238,864.746,-62.012,0
1539544984.193,62.500,-407.715,-969.238,992.188,-104.492,0
1539544984.197,51.758,-252.441,-969.238,944.336,-27.832,0
1539544984.201,71.777,65.430,-969.238,-965.332,41.504,0
1539544984.205,104.004,15.625,-969.238,690.918,-46.387,0
1539544984.209,46.875,-97.168,-969.238,93.750,-87.891,0
1539544984.213,31.250,18.555,-969.238,-80.078,-10.742,0
1539544984.217,47.363,152.344,-969.238,-254.395,70.312,0
1539544984.221,26.855,-117.188,-969.238,-462.402,-6.348,0
1539544984.225,42.480,-275.879,-969.238,-512.207,-87.891,0
1539544984.229,54.688,-59.570,-969.238,-505.859,-20.020,0
1539544984.232,49.316,1.465,-969.238,-503.418,43.457,0
1539544984.236,45.410,-180.664,-969.238,-456.543,12.695,0
1539544984.240,52.734,-438.965,-969.238,-388.672,-88.379,0
1539544984.244,48.828,-206.055,-969.238,-346.680,-72.754,0
1539544984.248,16.113,136.719,-969.238,-365.723,17.090,0
1539544984.252,42.969,0.488,-969.238,-322.754,19.531,0
1539544984.256,57.617,-172.363,-969.238,-409.668,-54.688,0
1539544984.260,41.992,-70.801,-969.238,-7.812,-63.965,0
1539544984.264,45.410,43.457,-969.238,882.324,13.184,0
1539544984.268,41.016,-45.410,-969.238,-979.980,35.156,0
1539544984.272,38.086,-125.000,-969.238,986.328,-42.480,0
1539544984.275,25.391,-57.617,-969.238,948.730,-88.867,0
1539544984.279,17.090,34.668,-969.238,899.902,-19.531,0
1539544984.283,44.434,-69.824,-969.238,-993.652,14.648,0
1539544984.287,38.574,-219.727,-969.238,954.590,-39.551,0
1539544984.291,25.391,-100.098,-969.238,-926.270,-97.656,0
1539544984.295,38.086,70.801,-969.238,538.574,-50.293,0
1539544984.299,30.273,158.691,-969.238,-675.293,29.297,0
1539544984.303,37.109,125.977,-969.238,-976.074,-19.043,0
1539544984.307,28.320,121.582,-969.238,-922.363,-100.586,0
1539544984.311,6.836,143.555,-969.238,-803.223,-67.383,0
1539544984.314,23.926,116.211,-969.238,153.809,22.461,0
1539544984.318,56.641,6.348,-969.238,-857.910,6.348,0
1539544984.322,51.758,-136.230,-969.238,437.012,-76.172,0
1539544984.326,13.184,-203.125,-969.238,328.613,-79.590,0
1539544984.330,5.371,-236.816,-969.238,544.434,-17.578,0
1539544984.334,23.438,-263.672,-969.238,493.164,5.371,0
1539544984.338,36.133,-318.848,-969.238,-946.777,-74.219,0
1539544984.342,0.977,-350.098,-969.238,988.770,-125.488,0
1539544984.346,-6.836,-350.098,-969.238,993.164,-79.102,0
1539544984.350,-3.418,-104.980,-969.238,998.535,-7.324,0
1539544984.354,-6.836,11.719,-969.238,-999.023,-20.020,0
1539544984.357,32.715,-160.645,-969.238,-997.559,-95.703,0
1539544984.361,37.598,-152.832,-969.238,940.918,-85.449,0
1539544984.365,-11.230,9.766,-969.238,970.215,-8.301,0
1539544984.369,-7.812,-3.418,-969.238,-990.234,-14.160,0
1539544984.373,12.207,-216.309,-969.238,994.629,-116.699,0
1539544984.377,27.344,-274.902,-969.238,-998.535,-123.535,0
1539544984.381,21.484,-117.676,-969.238,998.535,-22.949,1
1539544984.385,41.504,16.602,-969.238,981.445,6.348,0
1539544984.389,23.438,-190.918,-967.285,-984.375,-85.938,0
1539544984.393,-25.879,-314.453,-974.609,769.531,-128.418,0
1539544984.397,-8.301,114.746,-945.801,67.871,-23.926,0
1539544984.400,6.836,224.121,-924.316,-338.379,35.645,0
1539544984.404,22.949,-8.789,-958.984,35.156,-36.621,0
1539544984.408,14.648,-78.613,-982.422,698.242,-92.285,0
1539544984.412,3.418,60.547,-933.594,-994.629,-30.273,0
1539544984.416,12.207,58.594,-887.207,920.410,21.973,0
1539544984.420,20.020,-100.098,-960.449,-994.141,-30.273,0
1539544984.424,48.340,-266.602,-974.609,735.352,-98.633,0
1539544984.428,19.531,-182.129,-965.332,382.812,-52.734,0
1539544984.432,-23.926,-23.438,-970.215,-240.723,18.555,0
1539544984.436,42.480,-278.320,-966.797,-977.051,-27.832,0
1539544984.439,64.453,-252.441,-972.656,-960.449,-91.797,0
1539544984.443,-3.906,10.742,-964.844,-955.078,-80.078,0
1539544984.447,0.488,-25.391,-925.781,-973.145,4.883,0
1539544984.451,23.438,-159.668,-946.777,-969.238,29.297,0
1539544984.455,20.996,-175.781,-986.816,-969.238,-80.566,0
1539544984.459,22.949,-81.055,-910.645,-969.238,-110.352,0
1539544984.463,28.809,-36.133,-789.551,-968.750,-6.836,0
1539544984.467,21.484,-21.973,-686.523,-969.238,49.805,0
1539544984.471,17.578,-170.898,-816.895,-961.914,-24.414,0
1539544984.475,39.551,-262.695,-953.613,-946.289,-89.844,0
1539544984.479,62.012,-248.047,-924.316,-859.863,-40.039,0
1539544984.482,5.859,-249.023,-854.492,-439.453,14.648,0
1539544984.486,-12.207,-22.949,-631.836,-142.090,19.531,0
1539544984.490,19.531,-77.637,-705.078,-465.820,-64.453,0
1539544984.494,30.762,-112.793,-741.699,-403.320,-49.316,0
1539544984.498,27.832,7.324,-562.012,-458.008,36.133,0
1539544984.502,16.113,48.828,-448.242,-490.234,55.664,0
1539544984.506,32.227,-159.668,-662.598,-559.082,-41.992,0
1539544984.510,41.016,-266.113,-912.109,-981.445,-92.773,0
1539544984.514,45.410,-53.711,-756.836,-938.477,-1.953,0
1539544984.518,27.832,-60.059,-758.301,-979.492,31.250,0
1539544984.522,28.320,-201.660,-937.500,-572.754,-40.039,0
1539544984.525,34.180,-271.484,-993.164,442.871,-86.426,0
1539544984.529,50.781,31.738,-761.719,907.715,-2.930,0
1539544984.533,40.039,375.488,-377.441,951.660,73.730,0
1539544984.537,50.293,174.316,-511.230,-999.512,15.625,0
1539544984.541,82.520,-7.812,-733.887,998.047,-65.918,0
1539544984.545,39.551,165.527,-517.090,-1000.000,-21.484,0
1539544984.549,19.043,274.414,-301.758,997.559,44.922,0
1539544984.553,32.715,92.285,-445.801,975.098,-5.859,0
1539544984.557,41.504,-6.836,-556.152,-917.480,-86.426,0
1539544984.561,52.246,159.668,-330.566,543.457,-44.922,0
1539544984.564,52.246,140.137,-224.121,434.082,23.926,0
1539544984.568,67.871,-90.820,-351.562,764.648,11.230,0
1539544984.572,79.102,-222.168,-461.426,844.238,-80.566,0
1539544984.576,36.621,66.895,-151.855,-157.227,-81.055,0
1539544984.580,24.414,268.555,202.148,-311.523,24.902,0
1539544984.584,30.273,163.574,277.832,161.621,58.105,0
1539544984.588,48.340,-3.906,126.465,-527.344,-36.621,0
1539544984.592,64.941,-38.086,128.906,107.910,-103.027,0
1539544984.596,79.590,14.648,304.199,331.543,-41.504,0
1539544984.600,44.434,-7.324,371.094,823.730,5.859,0
1539544984.604,17.090,-56.641,299.316,397.461,-47.363,0
1539544984.607,48.828,-117.188,69.824,-1000.000,-142.578,0
1539544984.611,56.641,-123.535,-5.371,-116.699,-114.258,0
1539544984.615,51.270,-226.562,-76.660,-915.039,-48.828,0
1539544984.619,42.480,-57.617,51.758,973.633,-43.945,0
1539544984.623,51.270,71.777,137.207,966.797,-96.680,0
1539544984.627,58.105,-85.938,-81.055,-957.031,-117.676,0
1539544984.631,36.621,97.168,30.762,790.039,-29.297,0
1539544984.635,19.531,262.207,150.391,785.156,-5.859,0
1539544984.639,32.227,124.023,-0.977,-966.309,-79.590,0
1539544984.643,48.828,-59.570,-201.172,992.188,-114.258,0
1539544984.647,61.035,-34.668,-158.691,997.070,-42.480,0
1539544984.650,55.176,65.918,-40.039,-1000.000,12.695,0
1539544984.654,11.230,-6.348,-165.039,-993.164,-50.293,0
1539544984.658,7.812,-316.895,-594.727,933.105,-131.836,0
1539544984.662,18.066,-306.152,-659.180,-879.395,-72.754,0
1539544984.666,12.207,12.207,-301.270,423.828,14.648,0
1539544984.670,38.574,-14.648,-380.859,-875.488,-18.555,0
1539544984.674,42.480,-212.402,-725.098,-1000.000,-100.586,0
1539544984.678,2.930,-178.223,-703.613,-272.461,-76.172,0
1539544984.682,2.441,-78.613,-468.262,854.004,11.719,0
1539544984.686,23.438,-202.637,-588.867,-243.164,-5.859,0
1539544984.689,30.273,-351.562,-827.637,-1000.000,-89.355,0
1539544984.693,30.762,-294.922,-725.586,-902.832,-54.688,0
1539544984.697,-0.488,-193.848,-526.855,-984.863,21.973,0
1539544984.701,-15.137,-269.531,-555.176,-888.184,24.902,0
1539544984.705,10.742,-497.559,-834.961,-865.723,-57.617,0
1539544984.709,30.762,-584.961,-1000.000,-980.957,-116.699,0
1539544984.713,20.020,-327.637,-788.574,-970.215,-34.668,0
1539544984.717,5.859,-257.812,-603.027,-901.855,39.062,0
1539544984.721,31.738,-623.047,-878.418,-1000.000,-33.203,0
1539544984.725,23.438,-569.336,-925.293,-748.047,-96.191,0
1539544984.729,26.855,-230.469,-546.387,138.672,-30.762,0
1539544984.732,24.414,-265.137,-452.148,62.988,28.320,0
1539544984.736,49.316,-366.211,-604.980,-715.332,-6.836,0
1539544984.740,64.941,-371.094,-722.168,-966.309,-83.984,0
1539544984.744,18.066,-232.910,-619.141,-791.016,-67.383,0
1539544984.748,8.301,-149.902,-470.703,56.152,8.789,0
1539544984.752,25.879,-268.066,-560.059,956.543,-13.184,0
1539544984.756,25.391,-314.941,-753.906,-206.055,-74.707,0
1539544984.760,71.777,-107.910,-692.383,-1000.000,-44.922,0
1539544984.764,90.332,-80.566,-658.691,-976.562,18.066,0
1539544984.768,9.277,-193.359,-810.547,-490.234,24.414,0
1539544984.772,20.996,-16.113,-645.020,542.480,-44.922,0
1539544984.775,41.016,51.270,-548.340,629.883,-68.848,0
1539544984.779,14.160,78.125,-479.980,877.441,1.465,0
1539544984.783,16.602,151.367,-321.777,-976.562,49.805,0
1539544984.787,20.020,136.719,-357.910,57.617,1.953,0
1539544984.791,55.176,33.203,-545.898,-804.688,-72.266,0
1539544984.795,63.477,-0.488,-577.148,-434.570,-38.086,0
1539544984.799,31.738,5.371,-502.930,446.777,17.578,0
1539544984.803,24.414,17.578,-512.207,160.156,-6.348,0
1539544984.807,35.156,-15.137,-600.586,581.543,-74.219,0
1539544984.811,67.383,-114.746,-735.840,-955.566,-88.379,0
1539544984.814,58.105,125.977,-524.414,-967.285,3.418,0
1539544984.818,27.832,361.328,-255.859,564.453,33.691,0
1539544984.822,35.156,106.445,-613.770,-473.633,-53.711,0
1539544984.826,48.828,19.043,-862.305,-886.719,-92.285,0
1539544984.830,46.875,255.859,-646.973,-956.543,-9.766,0
1539544984.834,36.621,290.527,-602.051,-961.914,31.738,0
1539544984.838,42.969,96.191,-814.453,-894.043,-39.551,0
1539544984.842,76.172,46.875,-974.121,-820.801,-91.309,0
1539544984.846,62.500,85.449,-978.516,-269.531,-45.410,0
1539544984.850,16.113,180.664,-909.668,764.160,8.789,0
1539544984.854,44.922,58.594,-872.559,-962.891,-37.598,0
1539544984.857,55.664,-145.508,-985.840,964.355,-135.742,0
1539544984.861,35.645,238.281,-931.152,-996.094,-63.965,0
1539544984.865,19.531,408.203,-784.668,999.512,42.969,0
1539544984.869,29.785,243.164,-878.418,999.023,23.438,0
1539544984.873,36.621,136.230,-984.375,978.516,-67.871,0
1539544984.877,39.551,227.051,-965.820,-930.664,-72.266,0
1539544984.881,40.039,285.645,-949.219,667.480,5.859,0
1539544984.885,40.039,208.984,-957.031,583.008,18.066,0
1539544984.889,65.430,131.348,-972.656,-958.496,-63.965,0
1539544984.893,8.789,76.660,-967.773,997.070,-92.773,0
1539544984.897,-9.766,137.695,-969.238,-997.070,-1.953,0
1539544984.900,32.227,39.551,-969.238,935.547,22.461,0
1539544984.904,37.598,104.980,-969.238,-908.691,-23.926,0
1539544984.908,44.922,301.270,-969.238,681.152,-52.734,0
1539544984.912,47.363,194.824,-969.238,-812.500,-19.043,0
1539544984.916,61.035,231.445,-969.238,-776.367,62.012,0
1539544984.920,70.312,334.961,-969.238,426.270,55.176,0
1539544984.924,18.066,228.027,-969.238,682.129,-26.367,0
1539544984.928,5.371,160.645,-969.238,-145.508,-14.648,0
1539544984.932,23.926,222.168,-969.238,-833.008,47.363,0
1539544984.936,56.152,281.738,-969.727,-942.871,35.645,0
1539544984.939,47.363,111.816,-966.309,-960.938,-42.969,1
1539544984.943,4.395,33.203,-974.609,-969.238,-54.688,0
1539544984.947,20.020,249.512,-949.707,-969.727,28.320,0
1539544984.951,31.250,353.516,-894.043,-969.238,55.664,0
1539544984.955,23.926,290.527,-903.809,-969.238,9.277,0
1539544984.959,44.922,67.383,-970.215,-969.238,-18.555,0
1539544984.963,43.945,34.668,-939.941,-969.238,16.113,0
1539544984.967,18.066,312.500,-767.090,-969.238,96.680,0
1539544984.971,71.289,86.914,-854.980,-969.238,41.504,0
1539544984.975,75.195,-93.750,-1000.000,-969.238,-61.523,0
1539544984.979,0.000,181.641,-825.195,-969.238,14.160,0
1539544984.982,16.113,310.059,-604.492,-969.238,105.469,0
1539544984.986,47.363,64.453,-799.805,-969.238,52.734,0
1539544984.990,55.664,-247.559,-1000.000,-969.238,-53.711,0
1539544984.994,53.711,-9.277,-819.336,-969.238,-18.066,0
1539544984.998,12.695,389.648,-472.656,-969.238,103.516,0
1539544985.002,10.254,272.461,-469.727,-969.238,110.840,0
1539544985.006,46.875,56.152,-736.816,-969.238,27.344,0
1539544985.010,49.316,136.719,-708.984,-969.238,11.719,0
1539544985.014,64.453,277.832,-495.605,-969.238,98.145,0
1539544985.018,60.547,155.762,-584.961,-969.238,113.770,0
1539544985.022,27.832,6.348,-800.293,-969.238,34.668,0
1539544985.025,46.875,-21.484,-875.977,-969.238,-17.578,0
1539544985.029,26.367,54.199,-815.430,-969.238,45.898,0
1539544985.033,32.715,-45.898,-842.285,-972.656,84.961,0
1539544985.037,55.664,-166.504,-984.375,-957.031,19.043,0
1539544985.041,24.414,67.383,-949.707,-937.500,-25.879,0
1539544985.045,24.414,165.527,-844.727,-1000.000,13.184,0
1539544985.049,52.734,120.117,-833.496,-119.629,73.730,0
1539544985.053,35.645,152.832,-731.445,-866.211,90.820,0
1539544985.057,34.180,123.047,-742.676,338.379,30.762,0
1539544985.061,77.148,71.289,-854.492,-949.219,24.902,0
1539544985.064,71.777,49.316,-905.273,-967.285,70.312,0
1539544985.068,6.836,43.945,-950.195,-946.289,62.988,0
1539544985.072,13.672,0.000,-948.242,-949.707,-2.441,0
1539544985.076,44.922,-56.152,-973.633,-830.078,-23.438,0
1539544985.080,45.898,-63.965,-966.797,-952.148,53.223,0
1539544985.084,47.852,-86.426,-970.703,-875.977,93.262,0
1539544985.088,95.703,-42.480,-969.238,220.703,37.109,0
1539544985.092,80.566,-6.836,-938.477,-949.219,-10.742,0
1539544985.096,17.090,-149.414,-977.539,976.074,22.949,0
1539544985.100,20.020,18.555,-820.801,972.168,89.844,0
1539544985.104,38.086,189.453,-647.949,966.797,77.148,0
1539544985.107,58.594,-72.266,-856.934,-908.691,-12.207,0
1539544985.111,78.125,-83.008,-930.176,5.859,10.742,0
1539544985.115,53.711,109.863,-769.531,-1000.000,91.797,0
1539544985.119,27.832,106.934,-708.496,-904.785,101.562,0
1539544985.123,48.340,-109.863,-868.652,-1000.000,0.977,0
1539544985.127,55.664,-166.016,-971.680,-730.957,-14.160,0
1539544985.131,64.453,5.371,-804.199,-284.668,100.586,0
1539544985.135,46.387,99.609,-634.766,-212.402,114.746,0
1539544985.139,39.062,-72.754,-753.906,30.762,25.391,0
1539544985.143,69.824,-277.832,-1000.000,47.363,-45.410,0
1539544985.147,42.480,89.355,-750.977,-199.707,44.922,0
1539544985.150,20.508,324.707,-382.324,-179.199,131.348,0
1539544985.154,44.922,127.441,-515.137,91.797,59.082,0
1539544985.158,41.504,54.199,-616.211,391.602,-13.672,0
1539544985.162,73.730,230.469,-355.957,556.152,53.711,0
1539544985.166,77.637,289.062,-190.430,362.305,134.766,0
1539544985.170,15.625,141.602,-336.426,203.125,83.984,0
1539544985.174,27.832,-14.648,-548.828,526.367,-7.812,0
1539544985.178,37.598,58.594,-464.844,911.133,20.996,0
1539544985.182,40.039,197.754,-272.949,698.242,74.707,0
1539544985.186,47.852,27.344,-447.266,758.301,64.941,0
1539544985.189,39.062,22.949,-527.832,745.605,-0.488,0
1539544985.193,34.668,308.594,-230.469,350.586,17.578,0
1539544985.197,52.734,281.250,-141.113,669.922,94.238,0
1539544985.201,69.824,92.773,-306.641,-994.629,73.242,0
1539544985.205,41.992,154.785,-301.270,-986.816,11.719,0
1539544985.209,10.742,206.055,-272.461,870.605,-27.344,0
1539544985.213,20.508,206.543,-280.273,314.453,38.574,0
1539544985.217,35.645,243.652,-261.719,-55.664,82.031,0
1539544985.221,23.926,120.117,-441.895,-88.379,21.973,0
1539544985.225,21.484,27.832,-636.230,57.129,-44.434,0
1539544985.229,19.531,56.641,-626.953,110.840,-13.672,0
1539544985.232,37.598,85.938,-604.980,67.871,54.199,0
1539544985.236,29.297,318.848,-357.910,209.473,76.172,0
1539544985.240,6.836,236.816,-435.547,416.992,-15.137,0
1539544985.244,7.812,145.996,-585.449,112.305,-24.414,0
1539544985.248,15.625,277.344,-477.539,-577.148,71.777,0
1539544985.252,44.434,342.285,-408.203,-902.344,95.703,0
1539544985.256,32.715,153.809,-663.086,-957.520,-4.395,0
1539544985.260,14.648,45.410,-880.371,-965.820,-48.340,0
1539544985.264,52.734,207.520,-717.773,-968.750,31.738,0
1539544985.268,45.410,157.715,-781.738,-969.727,50.781,0
1539544985.272,34.668,52.734,-965.332,-969.238,-6.348,0
1539544985.275,36.133,-90.332,-981.445,-969.238,-67.871,0
1539544985.279,21.973,93.750,-899.902,-969.238,-6.348,0
1539544985.283,28.320,407.227,-757.812,-969.238,84.473,0
1539544985.287,45.410,175.293,-868.164,-969.238,14.160,0
1539544985.291,48.340,23.926,-980.957,-969.238,-70.312,0
1539544985.295,47.363,215.820,-965.332,-966.309,-20.996,0
1539544985.299,52.246,279.785,-967.285,-974.609,29.785,0
1539544985.303,32.715,164.551,-969.727,-940.430,20.508,0
1539544985.307,25.879,78.125,-969.238,-867.676,-39.062,0
1539544985.311,10.254,180.664,-969.238,-848.633,-20.020,0
1539544985.314,38.086,216.797,-969.238,-803.711,65.430,0
1539544985.318,39.551,-7.812,-969.238,-715.332,41.504,0
1539544985.322,7.324,-106.934,-969.238,-640.625,-38.086,0
1539544985.326,15.625,193.359,-969.238,-561.035,-36.621,0
1539544985.330,20.020,352.051,-969.238,-450.195,40.527,0
1539544985.334,29.297,277.832,-969.238,-399.414,87.891,0
1539544985.338,24.902,204.102,-969.238,-370.605,37.109,0
1539544985.342,77.148,189.941,-969.238,-280.762,-22.461,0
1539544985.346,85.449,181.152,-969.238,-226.562,-6.348,0
1539544985.350,-8.789,182.617,-969.238,-227.539,51.270,0
1539544985.354,8.301,219.238,-969.238,-377.441,59.082,0
1539544985.357,45.898,136.230,-969.238,-708.008,-31.250,0
1539544985.361,41.504,47.363,-969.238,-811.523,-28.320,0
1539544985.365,82.031,-58.105,-969.238,-828.613,30.762,0
1539544985.369,88.867,91.797,-969.727,-902.344,29.297,0
1539544985.373,3.418,175.293,-958.496,-1000.000,-46.875,0
1539544985.377,-2.930,41.504,-988.770,-497.559,-57.129,0
1539544985.381,23.926,217.773,-881.836,773.926,49.316,0
1539544985.385,38.574,390.625,-645.508,-959.961,101.074,0
1539544985.389,84.961,265.137,-732.422,957.520,13.672,0
1539544985.393,62.500,118.652,-908.203,-994.629,-46.387,0
1539544985.397,13.184,139.160,-879.395,-987.305,10.742,0
1539544985.400,3.906,253.418,-721.191,936.035,56.152,0
1539544985.404,14.160,231.934,-757.324,-913.086,4.883,0
1539544985.408,36.133,-45.898,-960.449,702.637,-59.570,0
1539544985.412,35.645,13.184,-933.105,-714.844,12.207,0
1539544985.416,25.391,346.191,-764.160,-916.016,90.332,0
1539544985.420,20.508,323.730,-674.316,63.965,71.777,0
1539544985.424,35.645,88.379,-853.027,-929.688,-32.715,0
1539544985.428,43.945,145.996,-797.852,645.996,-22.461,0
1539544985.432,37.598,252.930,-680.664,-771.484,72.266,0
1539544985.436,47.363,110.352,-879.395,-1000.000,34.668,0
1539544985.439,51.270,62.988,-954.102,-906.250,-42.480,0
1539544985.443,25.879,125.488,-922.363,-911.133,-47.852,0
1539544985.447,25.391,265.137,-692.871,-865.723,39.062,0
1539544985.451,18.066,243.164,-606.445,-1000.000,68.848,0
1539544985.455,50.293,-28.320,-882.324,-628.906,-33.691,0
1539544985.459,68.359,-34.180,-918.945,585.938,-67.383,0
1539544985.463,39.062,271.484,-531.250,-945.801,31.250,0
1539544985.467,67.383,281.738,-397.461,895.508,82.031,0
1539544985.471,69.824,-86.426,-779.297,-857.910,-6.836,0
1539544985.475,37.598,-62.012,-963.379,278.809,-79.590,0
1539544985.479,36.621,295.410,-710.449,-931.641,18.066,0
1539544985.482,36.133,223.145,-733.887,-272.461,77.148,0
1539544985.486,42.969,85.449,-877.930,945.801,32.715,0
1539544985.490,41.992,16.602,-921.387,216.797,-50.293,0
1539544985.494,37.109,84.473,-975.586,-1000.000,-50.293,0
1539544985.498,31.250,156.738,-965.820,-950.195,28.320,0
1539544985.502,24.414,18.066,-969.727,-914.062,24.414,0
1539544985.506,31.250,-122.559,-969.238,-1000.000,-72.266,0
1539544985.510,27.344,25.879,-969.238,-727.539,-85.938,0
1539544985.514,47.363,68.359,-969.238,-336.914,4.883,0
1539544985.518,44.434,-51.270,-969.238,-747.070,29.297,0
1539544985.522,24.902,120.605,-969.238,-1000.000,-25.391,0
1539544985.525,53.711,126.953,-969.238,-366.211,-62.988,0
1539544985.529,56.152,138.184,-969.238,70.312,7.324,0
1539544985.533,48.828,199.707,-969.238,-516.113,58.105,0
1539544985.537,68.359,160.645,-969.238,-682.617,-0.488,0
1539544985.541,52.246,23.438,-969.238,-601.074,-90.820,0
1539544985.545,40.527,-10.254,-969.238,-354.980,-83.008,0
1539544985.549,50.781,48.828,-969.238,538.086,-6.836,0
1539544985.553,46.875,38.574,-969.238,678.223,-6.348,0
1539544985.557,58.594,-85.449,-969.238,-867.676,-96.680,0
1539544985.561,63.965,-112.305,-969.238,-797.363,-114.258,0
1539544985.564,62.988,166.016,-969.238,352.539,-11.230,0
1539544985.568,67.383,354.492,-969.238,929.199,54.688,0
1539544985.572,55.176,107.910,-969.238,982.422,-22.461,0
1539544985.576,45.410,-47.852,-969.238,987.793,-77.637,0
1539544985.580,37.109,222.656,-969.238,942.871,19.531,0
1539544985.584,35.156,267.090,-969.238,-861.328,58.594,0
1539544985.588,70.801,19.043,-969.238,170.898,-46.875,0
1539544985.592,73.730,-13.184,-969.238,-1000.000,-94.238,0
1539544985.596,30.273,27.832,-969.238,-523.438,-37.109,0
1539544985.600,12.695,142.090,-969.238,-565.430,40.039,0
1539544985.604,30.762,24.414,-969.238,-1000.000,-9.766,0
1539544985.607,40.527,-170.410,-969.238,-948.730,-89.355,0
1539544985.611,16.602,180.176,-969.238,-960.938,-32.227,0
1539544985.615,12.695,289.551,-969.238,-966.797,23.438,0
1539544985.619,22.461,135.254,-969.238,-787.109,5.859,0
1539544985.623,43.457,72.754,-969.238,-296.875,-53.223,0
1539544985.627,19.531,159.668,-969.238,635.254,-46.875,0
1539544985.631,-5.859,198.242,-969.238,-947.754,20.020,0
1539544985.635,1.953,148.438,-969.238,941.406,44.434,0
1539544985.639,7.812,61.035,-969.238,-970.215,-34.668,0
1539544985.643,33.203,-54.199,-969.238,864.258,-97.168,2
1539544985.647,20.996,-3.906,-969.238,375.000,-18.066,0
1539544985.650,6.836,-64.941,-969.238,-210.938,20.508,0
1539544985.654,23.438,-29.785,-969.238,-794.922,-45.898,0
1539544985.658,21.484,165.039,-969.238,-6.348,-89.355,0
1539544985.662,8.789,112.305,-969.238,-999.023,-44.434,0
1539544985.666,4.883,106.934,-969.238,988.281,19.531,0
1539544985.670,1.465,180.664,-969.238,937.012,0.000,0
1539544985.674,-0.977,109.863,-969.238,998.047,-70.801,0
1539544985.678,3.418,56.641,-969.238,-996.582,-52.734,0
1539544985.682,-12.207,128.418,-969.238,984.375,28.320,0
1539544985.686,10.254,161.133,-969.238,-959.961,20.996,0
1539544985.689,4.395,-24.902,-968.750,792.480,-58.594,0
1539544985.693,-55.176,-215.332,-969.727,673.828,-96.191,0
1539544985.697,-52.246,-75.195,-968.750,-882.812,-7.812,0
1539544985.701,-26.367,258.789,-966.797,-41.504,68.359,0
1539544985.705,-6.836,169.434,-968.750,-914.062,-20.996,0
1539544985.709,0.000,-8.789,-969.238,-116.699,-85.449,0
1539544985.713,-1.953,122.070,-969.238,-186.523,-3.906,0
1539544985.717,-7.324,281.250,-969.238,-647.461,81.543,0
1539544985.721,0.488,47.852,-969.238,-198.242,10.254,0
1539544985.725,5.859,-72.754,-969.238,788.086,-63.965,0
1539544985.729,-6.836,130.371,-969.238,325.195,-18.555,0
1539544985.732,-19.531,229.004,-969.238,-755.859,55.176,0
1539544985.736,-11.719,45.898,-969.238,-962.891,26.367,0
1539544985.740,20.020,-290.527,-969.238,-950.195,-93.262,0
1539544985.744,8.789,-91.309,-969.238,-967.285,-80.078,0
1539544985.748,-20.508,291.016,-969.238,-971.191,28.320,0
1539544985.752,8.301,177.246,-969.238,-969.238,31.250,0
1539544985.756,6.348,-9.766,-969.238,-969.238,-52.734,0
1539544985.760,-19.531,68.359,-969.238,-969.238,-79.590,0
1539544985.764,-11.230,229.492,-969.238,-969.238,14.160,0
1539544985.768,0.977,156.738,-969.238,-969.238,62.012,0
1539544985.772,5.371,6.348,-969.238,-969.238,-21.973,0
1539544985.775,-1.465,75.684,-969.238,-969.238,-50.293,0
1539544985.779,-13.184,129.883,-969.238,-969.238,12.207,0
1539544985.783,13.184,0.977,-969.238,-969.727,57.617,0
1539544985.787,10.742,-114.258,-969.238,-952.637,11.230,0
1539544985.791,-13.672,46.387,-969.238,-1000.000,-72.754,0
1539544985.795,-7.324,212.891,-969.238,-739.258,-19.531,0
1539544985.799,-22.461,166.992,-969.238,-662.598,47.363,0
1539544985.803,-13.184,108.398,-969.238,-998.535,8.789,0
1539544985.807,9.766,84.473,-968.750,-960.449,-74.707,0
1539544985.811,-0.977,91.309,-969.727,-969.238,-69.824,0
1539544985.814,4.395,169.922,-968.262,-937.988,30.273,0
1539544985.818,25.391,154.785,-963.379,-615.723,67.871,0
1539544985.822,13.672,89.355,-968.262,-678.223,0.000,0
1539544985.826,7.324,85.938,-969.727,-958.984,-40.527,0
1539544985.830,26.855,37.109,-968.750,-1000.000,12.207,0
1539544985.834,8.301,69.824,-969.238,-725.586,59.082,0
1539544985.838,-2.930,102.051,-969.238,59.570,2.441,0
1539544985.842,1.465,72.266,-965.332,560.547,-46.387,0
1539544985.846,-23.438,-52.246,-979.980,868.652,-4.395,0
1539544985.850,-20.508,73.242,-920.898,-991.211,41.992,0
1539544985.854,-10.254,239.258,-882.812,946.777,24.414,0
1539544985.857,10.742,54.688,-960.449,636.719,-33.691,0
1539544985.861,7.324,45.410,-973.633,195.312,-10.742,0
1539544985.865,-15.625,216.797,-965.332,-132.812,58.594,0
1539544985.869,-12.695,194.336,-964.355,-239.746,53.711,0
1539544985.873,-5.859,-22.949,-968.262,-616.211,-37.598,0
1539544985.877,20.996,-108.398,-969.727,-981.934,-58.594,0
1539544985.881,27.344,16.113,-968.750,-850.586,26.855,0
1539544985.885,-15.625,151.367,-969.727,-685.547,60.547,0
1539544985.889,-35.156,-26.367,-966.797,-353.516,-30.273,0
1539544985.893,-10.742,-217.773,-972.168,92.285,-77.637,0
1539544985.897,-31.250,132.812,-963.867,-172.852,18.555,0
1539544985.900,-42.480,341.309,-922.852,-452.148,94.238,0
1539544985.904,-20.996,133.301,-948.730,-149.414,20.996,0
1539544985.908,-17.090,33.203,-975.098,342.773,-65.430,0
1539544985.912,-11.719,211.914,-968.750,-14.160,4.395,0
1539544985.916,-23.926,280.762,-945.801,-441.406,106.445,0
1539544985.920,-9.766,146.973,-953.613,-63.965,77.637,0
1539544985.924,13.184,-66.406,-974.121,155.273,-30.762,0
1539544985.928,6.348,12.695,-967.285,469.238,-13.672,0
1539544985.932,8.789,203.125,-964.844,254.395,70.312,0
1539544985.936,12.207,-51.270,-968.262,-256.348,41.992,0
1539544985.939,-4.883,-51.758,-969.727,-139.648,-24.414,0
1539544985.943,6.836,205.078,-968.750,-28.809,-22.461,0
1539544985.947,7.812,164.062,-969.238,-105.957,42.969,0
1539544985.951,21.973,62.500,-969.238,-155.273,71.289,0
1539544985.955,29.785,90.820,-969.238,-16.113,13.184,0
1539544985.959,-16.113,106.934,-969.238,216.797,-38.086,0
1539544985.963,1.465,79.590,-969.238,207.031,3.906,0
1539544985.967,18.066,128.418,-969.238,239.258,59.082,0
1539544985.971,7.324,0.488,-969.238,411.621,3.418,0
1539544985.975,12.695,-27.344,-969.238,550.781,-63.965,0
1539544985.979,9.766,2.930,-969.238,726.074,-36.133,0
1539544985.982,11.230,-35.645,-969.238,759.766,24.414,0
1539544985.986,14.160,181.641,-969.238,567.383,31.738,0
1539544985.990,23.926,157.715,-969.238,614.746,-32.715,0
1539544985.994,32.227,79.102,-969.238,673.340,-32.715,0
1539544985.998,11.230,156.738,-969.238,288.086,32.715,0
1539544986.002,3.418,223.633,-969.238,337.891,52.734,0
1539544986.006,20.508,120.117,-969.238,206.543,2.441,0
1539544986.010,32.715,9.277,-969.238,-119.629,-30.762,0
1539544986.014,20.508,130.371,-969.238,248.047,29.785,0
1539544986.018,11.719,131.348,-969.238,618.164,82.520,0
1539544986.022,20.508,-32.715,-969.238,395.508,-2.441,0
1539544986.025,21.973,-214.844,-969.238,-231.934,-88.379,0
1539544986.029,15.137,-58.594,-969.238,-695.312,-17.090,0
1539544986.033,20.996,277.344,-969.238,-664.551,62.500,0
1539544986.037,29.297,116.699,-969.238,-574.707,0.977,0
1539544986.041,18.555,-34.668,-969.238,-846.191,-70.312,0
1539544986.045,11.230,160.645,-969.238,-974.121,-16.602,0
1539544986.049,17.578,243.652,-969.238,-781.738,50.293,0
1539544986.053,9.766,123.535,-969.238,-638.184,38.086,0
1539544986.057,5.859,7.812,-969.238,-716.797,-41.016,0
1539544986.061,7.324,131.836,-969.238,-593.262,-26.855,0
1539544986.064,26.367,155.273,-969.238,-97.656,54.688,0
1539544986.068,33.203,-44.434,-969.238,39.551,61.035,0
1539544986.072,33.691,-154.297,-969.238,-327.148,-29.297,0
1539544986.076,20.996,105.469,-969.238,-631.836,-48.828,0
1539544986.080,7.812,275.391,-969.238,-545.410,35.645,0
1539544986.084,11.719,235.352,-969.238,82.031,104.980,0
1539544986.088,20.508,126.465,-969.238,556.641,41.504,0
1539544986.092,22.461,83.008,-969.238,178.711,-46.387,0
1539544986.096,20.508,174.805,-969.238,227.051,26.367,0
1539544986.100,27.832,153.809,-969.238,7.324,81.055,0
1539544986.104,33.203,82.031,-969.238,-198.242,27.832,0
1539544986.107,43.945,55.664,-969.238,918.945,-41.992,0
1539544986.111,35.645,-21.973,-969.238,576.172,-21.973,0
1539544986.115,-3.418,-37.109,-969.238,-484.375,43.457,0
1539544986.119,-5.371,131.836,-969.238,242.676,53.711,0
1539544986.123,12.207,41.016,-969.238,-951.172,-39.551,0
1539544986.127,12.207,-78.125,-969.238,968.262,-65.918,0
1539544986.131,13.184,-30.273,-969.238,974.121,14.160,0
1539544986.135,19.043,163.574,-966.797,-980.957,73.730,0
1539544986.139,27.344,208.008,-967.773,43.457,29.785,0
1539544986.143,63.477,41.992,-969.727,-148.438,-24.414,0
1539544986.147,52.246,129.395,-968.750,305.176,55.176,0
1539544986.150,-2.441,221.680,-967.285,-519.043,97.168,0
1539544986.154,16.113,131.348,-968.750,-170.410,27.832,0
1539544986.158,32.227,-149.414,-967.285,479.492,-50.293,0
1539544986.162,18.555,-183.105,-975.098,536.133,-23.926,0
1539544986.166,20.020,201.172,-944.824,614.258,76.172,0
1539544986.170,29.785,257.324,-932.129,826.172,81.055,0
1539544986.174,29.785,11.719,-970.703,-987.793,-23.926,0
1539544986.178,25.391,46.387,-969.727,995.605,-31.250,0
1539544986.182,63.965,155.762,-968.262,991.211,55.176,0
1539544986.186,22.461,85.938,-970.215,-992.676,66.895,0
1539544986.189,-21.973,11.230,-964.355,990.723,-23.438,0
1539544986.193,5.859,54.688,-978.027,895.508,-40.039,0
1539544986.197,4.395,217.285,-949.219,961.914,52.246,0
1539544986.201,12.695,229.492,-883.301,-985.840,105.469,0
1539544986.205,53.223,-53.711,-946.289,992.188,14.648,0
1539544986.209,38.086,-95.215,-979.980,-999.023,-45.898,0
1539544986.213,13.672,182.129,-965.820,999.512,22.461,0
1539544986.217,10.254,234.863,-926.758,999.512,105.469,0
1539544986.221,14.160,-98.145,-946.289,999.512,49.805,0
1539544986.225,25.391,-94.727,-979.004,999.512,-35.645,0
1539544986.229,25.879,239.258,-962.402,999.512,30.273,0
1539544986.232,22.949,151.855,-953.125,999.512,79.102,0
1539544986.236,25.879,28.320,-966.797,999.512,40.527,0
1539544986.240,38.086,-77.637,-970.703,999.512,-64.941,0
1539544986.244,43.945,10.742,-968.262,999.512,-54.199,0
1539544986.248,33.691,134.766,-969.238,999.512,31.738,0
1539544986.252,28.809,-5.371,-969.238,999.512,19.531,0
1539544986.256,46.387,-69.336,-969.238,-995.117,-40.039,0
1539544986.260,50.293,35.645,-969.238,964.355,-54.688,0
1539544986.264,45.410,27.832,-969.238,-973.145,-3.906,0
1539544986.268,37.109,-33.691,-969.238,828.125,26.367,0
1539544986.272,27.832,139.648,-969.238,-362.305,-17.578,0
1539544986.275,27.344,134.766,-969.238,-1000.000,-75.195,0
1539544986.279,27.832,129.883,-969.238,-929.688,-22.949,0
1539544986.283,58.105,231.445,-969.238,-965.332,52.734,0
1539544986.287,50.293,230.957,-969.238,-971.191,26.855,0
1539544986.291,6.836,38.574,-969.238,-969.238,-83.008,0
1539544986.295,47.363,20.508,-969.238,-969.238,-73.730,0
1539544986.299,24.902,90.332,-969.238,-969.238,20.508,0
1539544986.303,-10.742,29.785,-969.238,-969.238,5.859,0
1539544986.307,14.648,-37.109,-969.238,-969.238,-64.941,0
1539544986.311,20.508,-137.695,-969.238,-969.238,-81.055,0
1539544986.314,19.043,60.059,-969.238,-969.238,-21.484,0
1539544986.318,28.320,316.406,-969.238,-969.238,27.344,0
1539544986.322,41.504,92.285,-969.238,-969.238,-48.828,0
1539544986.326,44.922,-14.648,-969.238,-969.238,-98.633,1
1539544986.330,38.086,207.031,-969.238,-968.750,-16.113,0
1539544986.334,33.203,253.418,-969.238,-954.590,31.738,0
1539544986.338,24.902,64.941,-969.238,-1000.000,-23.926,0
1539544986.342,26.367,-28.320,-969.238,-749.023,-86.426,0
1539544986.346,25.391,64.941,-969.238,-650.879,-31.738,0
1539544986.350,28.809,124.023,-969.238,-963.867,20.508,0
1539544986.354,46.875,15.137,-969.238,-988.281,-15.625,0
1539544986.357,47.852,-118.164,-966.309,-494.141,-85.938,0
1539544986.361,41.016,191.406,-979.492,328.613,-53.223,0
1539544986.365,53.223,364.258,-918.457,862.793,38.574,0
1539544986.369,47.363,224.121,-910.645,-992.676,35.645,0
1539544986.373,38.086,97.168,-977.051,969.238,-53.711,0
1539544986.377,41.992,178.223,-968.262,-982.422,-61.035,0
1539544986.381,42.969,194.824,-968.262,869.141,-9.277,0
1539544986.385,40.039,124.512,-969.238,350.098,18.066,0
1539544986.389,40.527,87.402,-969.238,76.172,-20.020,0
1539544986.393,43.457,-43.457,-969.238,313.477,-72.266,0
1539544986.397,64.941,7.812,-969.238,607.910,-25.391,0
1539544986.400,52.734,-66.895,-968.262,842.285,2.441,0
1539544986.404,1.953,-48.340,-971.191,998.535,-41.016,0
1539544986.408,3.418,183.105,-960.938,998.047,-69.824,0
1539544986.412,22.461,87.402,-962.891,990.723,-39.551,0
1539544986.416,20.996,74.707,-890.137,-992.676,26.855,0
1539544986.420,23.926,217.773,-722.168,984.375,48.340,0
1539544986.424,33.203,134.277,-784.668,871.094,-19.531,0
1539544986.428,27.344,11.230,-910.156,857.422,-35.156,0
1539544986.432,47.363,97.168,-765.137,853.027,54.688,0
1539544986.436,48.828,126.953,-712.891,502.441,56.641,0
1539544986.439,28.809,-93.262,-928.223,-361.328,-51.270,0
1539544986.443,38.086,-278.809,-981.934,-983.887,-99.121,0
1539544986.447,38.086,-189.453,-958.496,-817.871,-38.574,0
1539544986.451,14.648,95.215,-862.793,370.605,26.855,0
1539544986.455,16.602,102.539,-792.480,-928.711,-17.578,0
1539544986.459,33.203,-35.156,-909.180,961.426,-88.379,0
1539544986.463,20.996,66.406,-784.180,965.820,-16.602,0
1539544986.467,47.363,219.238,-523.438,-944.336,62.988,0
1539544986.471,58.105,7.324,-688.965,790.039,14.648,0
1539544986.475,15.625,-172.363,-961.426,198.730,-61.523,0
1539544986.479,20.508,23.926,-778.320,439.941,-18.555,0
1539544986.482,43.457,173.340,-496.094,501.465,73.242,0
1539544986.486,40.527,-20.508,-701.660,146.973,42.480,0
1539544986.490,56.641,-381.836,-988.770,74.707,-72.754,0
1539544986.494,47.852,-232.422,-883.789,-16.602,-72.754,0
1539544986.498,44.434,171.875,-555.664,94.238,50.293,0
1539544986.502,46.387,49.316,-547.363,339.355,62.500,0
1539544986.506,10.254,-180.664,-797.852,218.750,-24.414,0
1539544986.510,10.254,-58.594,-666.992,610.840,-13.184,0
1539544986.514,14.160,64.453,-424.805,925.293,59.570,0
1539544986.518,20.996,-62.500,-543.457,-7.324,68.359,0
1539544986.522,29.297,-174.805,-734.375,151.855,6.348,0
1539544986.525,26.367,-130.859,-691.406,984.863,-45.898,0
1539544986.529,23.438,-67.871,-582.520,998.047,10.742,0
1539544986.533,21.484,-205.566,-717.285,979.492,50.781,0
1539544986.537,35.156,-298.340,-910.156,-996.582,16.113,0
1539544986.541,24.902,-91.309,-798.828,999.023,-41.504,0
1539544986.545,13.184,67.383,-597.656,999.512,-9.277,0
1539544986.549,26.367,76.172,-532.227,999.512,80.078,0
1539544986.553,11.719,22.461,-594.727,-1000.000,53.711,0
1539544986.557,0.488,23.438,-633.789,989.258,-13.184,0
1539544986.561,7.812,42.969,-620.117,-962.891,-7.324,0
1539544986.564,7.812,71.777,-575.684,808.594,59.570,0
1539544986.568,10.254,62.012,-594.727,905.762,62.500,0
1539544986.572,5.859,14.160,-690.430,541.016,-11.719,0
1539544986.576,41.016,-16.602,-844.238,-787.109,-42.969,0
1539544986.580,46.387,-94.727,-953.125,-1000.000,-17.578,0
1539544986.584,-8.789,13.184,-890.625,-923.340,38.086,0
1539544986.588,-1.465,63.965,-872.559,-977.539,8.789,0
1539544986.592,18.066,-50.781,-978.516,-969.238,-70.312,0
1539544986.596,9.766,-93.750,-985.352,-969.238,-32.227,0
1539544986.600,-7.324,122.070,-833.008,-969.238,56.152,0
1539544986.604,-14.648,239.746,-792.969,-969.238,45.410,0
1539544986.607,20.020,-44.434,-970.703,-969.238,-79.102,0
1539544986.611,37.598,-24.902,-955.078,-969.238,-68.359,0
1539544986.615,-30.273,208.008,-827.637,-969.238,42.969,0
1539544986.619,-32.227,173.828,-859.375,-969.238,34.668,0
1539544986.623,11.230,-85.449,-972.656,-969.238,-94.238,0
1539544986.627,8.789,-163.574,-969.238,-969.238,-120.605,0
1539544986.631,20.996,-30.762,-966.309,-969.238,-46.387,0
1539544986.635,25.879,120.117,-970.703,-969.238,-9.277,0
1539544986.639,38.574,13.672,-963.867,-969.238,-44.922,0
1539544986.643,38.574,-246.094,-979.492,-969.238,-116.211,0
1539544986.647,-8.301,78.613,-938.965,-974.121,-32.227,0
1539544986.650,2.930,328.613,-854.980,-929.688,67.871,0
1539544986.654,25.391,74.219,-928.223,-1000.000,-23.438,0
1539544986.658,26.855,19.531,-984.863,-733.398,-70.801,0
1539544986.662,18.555,122.559,-947.266,439.453,7.324,0
1539544986.666,14.160,138.184,-852.539,534.668,74.219,0
1539544986.670,12.695,50.293,-904.785,-499.023,46.387,0
1539544986.674,20.996,-222.656,-985.352,-107.422,-73.242,0
1539544986.678,49.316,-135.742,-963.379,831.543,-56.641,0
1539544986.682,26.855,105.957,-932.617,716.309,45.410,0
1539544986.686,-1.953,-153.809,-951.660,456.543,49.316,0
1539544986.689,10.254,-241.699,-975.098,411.133,-40.527,0
1539544986.693,14.648,59.082,-966.797,374.512,-49.805,0
1539544986.697,20.020,72.266,-969.727,154.785,29.297,0
1539544986.701,26.367,-47.363,-969.238,51.270,58.594,0
1539544986.705,21.484,-44.922,-968.750,-1.465,7.324,0
1539544986.709,30.273,8.301,-969.238,-97.656,-45.410,0
1539544986.713,39.062,0.000,-971.191,-96.191,-8.301,0
1539544986.717,48.828,60.547,-952.148,96.191,71.777,0
1539544986.721,58.594,-43.945,-957.520,254.395,29.785,0
1539544986.725,35.645,-220.215,-970.703,355.957,-86.426,0
1539544986.729,42.480,-233.398,-969.727,819.336,-65.918,0
1539544986.732,34.180,-152.832,-970.703,993.164,4.883,0
1539544986.736,27.344,138.672,-920.898,814.941,37.598,0
1539544986.740,38.086,100.098,-940.918,238.770,-30.273,0
1539544986.744,44.434,22.949,-979.004,-563.965,-33.203,0
1539544986.748,77.637,148.926,-951.660,-848.145,58.105,0
1539544986.752,58.594,195.312,-952.148,-940.918,62.500,0
1539544986.756,30.762,57.129,-968.262,-979.492,-15.137,0
1539544986.760,42.480,-40.039,-976.074,-852.051,-40.527,0
1539544986.764,35.645,114.258,-922.363,-501.465,52.734,0
1539544986.768,38.086,99.121,-926.270,-268.066,98.145,0
1539544986.772,53.711,-48.340,-967.285,-246.094,9.766,0
1539544986.775,60.059,-244.141,-985.840,226.074,-84.473,0
1539544986.779,51.270,-12.695,-883.789,193.848,10.742,0
1539544986.783,48.340,344.238,-692.871,-145.020,117.188,0
1539544986.787,59.082,102.539,-801.270,-117.188,57.617,0
1539544986.791,60.547,-110.352,-981.445,-534.180,-32.715,0
1539544986.795,38.574,-0.977,-939.941,-184.570,-8.789,0
1539544986.799,28.320,76.172,-772.461,370.605,65.430,0
1539544986.803,39.551,-100.098,-826.660,653.320,36.133,0
1539544986.807,24.902,-250.488,-984.375,983.887,-62.012,0
1539544986.811,34.668,-123.535,-928.711,-985.840,-59.570,0
1539544986.814,34.668,-38.574,-861.816,872.559,46.875,0
1539544986.818,37.109,-179.688,-902.344,355.469,73.730,0
1539544986.822,64.941,-360.840,-967.285,10.254,-44.922,0
1539544986.826,26.367,-109.375,-982.910,148.926,-79.590,0
1539544986.830,1.953,162.109,-832.520,293.457,22.949,0
1539544986.834,17.090,138.184,-742.676,357.422,97.656,0
1539544986.838,19.531,44.434,-845.215,550.781,47.363,0
1539544986.842,26.855,79.102,-817.871,880.371,-0.488,0
1539544986.846,42.969,111.328,-724.121,-996.094,32.227,0
1539544986.850,37.109,72.754,-744.141,954.590,72.754,0
1539544986.854,9.766,109.863,-741.699,997.070,72.266,0
1539544986.857,3.906,18.555,-853.027,-998.047,-22.461,0
1539544986.861,17.090,-108.398,-974.121,-997.559,-34.180,0
1539544986.865,27.832,-225.586,-972.656,964.355,34.180,1
1539544986.869,26.367,-137.695,-929.688,-911.133,37.109,0
1539544986.873,33.203,-82.031,-917.969,688.965,-26.855,0
1539544986.877,29.785,-267.090,-990.723,392.578,-50.781,0
1539544986.881,27.344,-102.051,-888.672,973.145,44.434,0
1539544986.885,18.555,64.453,-737.793,-973.145,83.496,0
1539544986.889,-1.953,-57.617,-838.867,975.586,7.812,0
1539544986.893,4.883,-209.961,-971.680,-999.023,-35.645,0
1539544986.897,32.715,-155.273,-920.898,-992.676,12.207,0
1539544986.900,33.203,-2.441,-775.879,968.262,65.918,0
1539544986.904,-6.836,0.000,-803.223,911.621,48.828,0
1539544986.908,-0.977,-301.270,-951.172,-943.848,-28.809,0
1539544986.912,11.719,-385.254,-977.051,652.832,-23.926,0
1539544986.916,7.812,12.207,-854.004,-318.359,76.660,0
1539544986.920,31.250,28.809,-857.422,-835.449,78.613,0
1539544986.924,36.621,-265.625,-973.633,-963.867,-21.973,0
1539544986.928,14.648,-242.188,-969.727,-959.473,-32.715,0
1539544986.932,27.344,-180.176,-963.379,-969.727,39.062,0
1539544986.936,46.387,-267.578,-969.238,-969.727,42.480,0
1539544986.939,42.969,-331.543,-963.867,-969.238,-62.988,0
1539544986.943,46.387,-279.297,-982.422,-969.238,-88.379,0
1539544986.947,36.133,-55.176,-903.809,-969.238,27.832,0
1539544986.951,19.531,-24.414,-812.988,-969.238,85.449,0
1539544986.955,25.879,-284.180,-927.246,-969.238,6.348,0
1539544986.959,26.367,-292.969,-995.605,-969.238,-31.250,0
1539544986.963,10.742,19.043,-841.797,-969.238,49.805,0
1539544986.967,-0.977,64.453,-749.023,-969.238,102.539,0
1539544986.971,9.277,-328.613,-921.875,-969.238,14.648,0
1539544986.975,23.926,-306.641,-1000.000,-969.238,-69.824,0
1539544986.979,18.555,136.230,-822.266,-969.238,24.902,0
1539544986.982,16.602,64.453,-799.805,-969.238,72.266,0
1539544986.986,25.391,-39.551,-937.012,-969.238,31.250,0
1539544986.990,14.160,-45.410,-951.660,-969.238,-20.996,0
1539544986.994,19.531,5.371,-913.574,-969.238,-21.973,0
1539544986.998,13.672,86.426,-843.750,-969.238,49.805,0
1539544987.002,15.625,-4.395,-903.320,-969.238,82.520,0
1539544987.006,16.602,-113.281,-972.168,-969.238,7.812,0
1539544987.010,24.902,-1.465,-916.504,-969.238,-15.137,0
1539544987.014,13.672,6.348,-878.418,-969.238,36.621,0
1539544987.018,-10.742,-138.184,-950.684,-969.238,28.809,0
1539544987.022,-5.859,58.594,-897.949,-969.238,-4.395,0
1539544987.025,0.000,68.848,-890.625,-969.238,-46.387,0
1539544987.029,6.348,16.602,-914.062,-969.238,-11.230,0
1539544987.033,26.367,90.332,-806.641,-969.238,51.270,0
1539544987.037,13.184,104.980,-772.461,-969.727,33.203,0
1539544987.041,-0.488,-45.410,-940.918,-967.773,-51.270,0
1539544987.045,7.324,-66.895,-949.707,-967.773,-33.203,0
1539544987.049,-11.230,14.160,-924.316,-971.191,57.617,0
1539544987.053,0.977,-37.109,-973.145,-891.113,43.457,0
1539544987.057,16.602,-138.184,-965.332,-789.062,-37.109,0
1539544987.061,28.320,-253.418,-977.051,-733.887,-53.711,0
1539544987.064,19.531,-14.648,-928.711,-688.477,28.809,0
1539544987.068,6.348,274.902,-833.496,-673.828,80.078,0
1539544987.072,20.996,57.617,-902.832,-669.922,10.254,0
