timestamps,TP9,AF7,AF8,TP10,Right AUX,Marker0
1539629235.571,52.246,31.738,33.691,43.945,15.625,2
1539629235.574,59.082,31.738,34.180,44.434,29.785,0
1539629235.578,39.062,30.273,27.832,43.457,66.406,0
1539629235.582,29.297,33.691,32.715,37.109,44.434,0
1539629235.586,38.574,37.109,36.133,40.527,19.043,0
1539629235.590,37.109,27.832,36.621,40.039,28.320,0
1539629235.594,32.227,25.879,35.645,29.785,2.441,0
1539629235.598,36.133,34.668,33.203,30.762,-20.508,0
1539629235.602,36.621,36.133,30.762,34.668,-42.969,0
1539629235.606,30.762,29.785,33.691,37.598,-39.551,0
1539629235.610,38.086,24.414,35.156,40.039,-43.945,0
1539629235.614,39.062,33.691,29.297,39.062,-49.805,0
1539629235.617,31.250,39.551,27.344,25.879,15.625,0
1539629235.621,22.949,36.133,35.645,13.184,81.055,0
1539629235.625,20.020,31.738,32.715,11.719,84.961,0
1539629235.629,19.043,34.180,24.414,24.414,75.195,0
1539629235.633,21.484,35.156,21.973,32.227,13.184,0
1539629235.637,44.922,30.273,21.973,25.879,-34.180,0
1539629235.641,48.828,34.180,25.879,30.273,16.602,0
1539629235.645,41.504,37.598,29.785,36.621,13.672,0
1539629235.649,36.621,32.715,27.832,25.391,-12.695,0
1539629235.653,23.926,30.762,23.438,27.344,-1.465,0
1539629235.657,29.785,33.203,23.926,32.227,7.324,0
1539629235.660,37.598,36.133,26.367,26.855,34.668,0
1539629235.664,33.203,40.527,27.344,26.367,14.160,0
1539629235.668,28.809,33.203,27.344,25.879,56.641,0
1539629235.672,32.227,31.250,25.879,27.832,64.941,0
1539629235.676,33.203,32.715,26.367,23.438,22.949,0
1539629235.680,30.273,28.320,24.414,15.137,80.078,0
1539629235.684,28.809,30.273,25.879,14.648,75.195,0
1539629235.688,24.902,32.227,28.809,24.414,43.945,0
1539629235.692,28.320,34.668,22.949,25.879,46.875,0
1539629235.696,19.531,36.621,20.508,21.973,76.172,0
1539629235.699,22.461,34.180,21.973,27.832,87.402,0
1539629235.703,36.621,37.109,22.461,25.879,14.648,0
1539629235.707,25.879,43.457,26.367,21.484,40.039,0
1539629235.711,24.902,38.574,31.738,25.391,79.590,0
1539629235.715,26.367,33.203,31.738,32.715,29.297,0
1539629235.719,26.367,32.715,28.320,33.203,38.574,0
1539629235.723,28.809,38.574,27.832,25.879,32.227,0
1539629235.727,37.598,36.621,32.715,27.832,39.062,0
1539629235.731,45.898,32.715,33.691,33.203,39.551,0
1539629235.735,42.969,34.180,31.250,30.762,22.461,0
1539629235.739,31.738,33.203,35.645,31.250,82.031,0
1539629235.742,16.602,35.645,36.621,25.391,102.051,0
1539629235.746,15.137,28.809,32.715,20.508,46.387,0
1539629235.750,20.508,30.273,27.832,21.973,37.109,0
1539629235.754,19.531,36.621,28.320,29.297,37.109,0
1539629235.758,19.531,31.250,30.762,24.414,12.695,0
1539629235.762,23.438,27.344,32.715,20.996,41.016,0
1539629235.766,14.648,20.508,30.762,23.438,59.082,0
1539629235.770,24.414,28.809,22.461,13.184,41.016,0
1539629235.774,29.297,41.016,20.508,13.672,21.973,0
1539629235.778,20.020,38.086,23.438,16.113,20.508,0
1539629235.782,23.926,42.480,24.414,23.438,41.504,0
1539629235.785,41.016,50.293,25.391,31.738,5.859,0
1539629235.789,50.293,44.922,29.297,28.809,21.484,0
1539629235.793,45.898,39.551,33.691,30.273,39.062,0
1539629235.797,47.852,38.574,34.180,35.645,-6.836,0
1539629235.801,44.434,39.551,30.762,38.574,14.648,0
1539629235.805,37.598,40.527,30.273,32.715,62.988,0
1539629235.809,38.574,43.945,29.785,28.320,19.531,0
1539629235.813,38.574,46.387,29.297,27.344,17.578,0
1539629235.817,40.527,44.922,31.738,24.902,83.496,0
1539629235.821,40.527,45.898,27.344,26.367,80.566,0
1539629235.824,39.551,42.969,24.414,28.320,43.457,0
1539629235.828,34.180,36.133,29.785,30.273,22.461,0
1539629235.832,26.855,39.062,29.297,24.414,21.484,0
1539629235.836,25.879,43.457,26.367,15.625,3.418,0
1539629235.840,23.438,41.016,28.320,27.832,25.879,0
1539629235.844,27.344,38.574,24.414,28.320,44.434,0
1539629235.848,40.039,37.109,23.926,23.438,19.531,0
1539629235.852,37.109,41.016,31.250,33.203,45.410,0
1539629235.856,24.902,36.621,34.180,29.785,69.824,0
1539629235.860,45.898,30.273,34.180,48.340,23.438,0
1539629235.864,58.594,36.621,27.344,51.758,54.199,0
1539629235.867,18.066,39.062,13.184,-1.465,119.141,0
1539629235.871,-4.395,38.574,13.672,-19.531,48.340,0
1539629235.875,2.930,37.109,22.949,-11.719,-2.441,0
1539629235.879,-7.812,34.180,23.926,-18.555,6.348,0
1539629235.883,-6.348,33.203,18.555,-21.484,13.672,0
1539629235.887,-14.160,33.691,17.578,-25.391,1.953,0
1539629235.891,-20.020,27.832,17.090,-28.320,36.621,0
1539629235.895,-5.859,24.414,20.996,-17.578,64.453,0
1539629235.899,-0.488,29.297,25.879,2.441,12.207,0
1539629235.903,6.836,35.156,30.273,14.160,5.371,0
1539629235.907,14.648,29.785,35.156,14.648,69.824,0
1539629235.910,13.672,24.414,33.691,14.160,65.430,0
1539629235.914,20.996,17.578,24.902,5.859,-21.484,0
1539629235.918,31.250,14.648,19.531,5.371,24.414,0
1539629235.922,19.531,22.949,23.438,5.371,103.516,0
1539629235.926,13.184,29.297,24.902,2.441,32.227,0
1539629235.930,17.090,34.180,26.367,4.883,-10.742,0
1539629235.934,11.230,29.297,28.320,6.836,22.949,0
1539629235.938,15.625,22.461,27.344,8.301,42.969,0
1539629235.942,16.113,22.461,29.785,12.695,48.340,0
1539629235.946,4.395,29.785,34.668,7.324,26.367,0
1539629235.949,5.371,33.203,22.949,-0.488,5.371,0
1539629235.953,17.090,29.297,20.996,4.883,68.359,0
1539629235.957,17.090,28.809,30.273,13.672,57.129,0
1539629235.961,6.348,32.227,30.273,10.254,42.480,0
1539629235.965,11.230,33.203,30.762,8.789,50.781,0
1539629235.969,10.742,31.250,31.738,11.230,-24.414,0
1539629235.973,4.395,33.691,35.156,1.465,-29.297,0
1539629235.977,13.184,37.598,34.668,-1.465,24.414,0
1539629235.981,16.113,36.621,32.715,0.977,-9.766,0
1539629235.985,20.996,37.109,31.738,3.906,-31.738,0
1539629235.989,15.625,32.715,28.320,11.230,20.508,0
1539629235.992,6.348,34.180,25.391,9.277,29.785,0
1539629235.996,1.953,29.785,29.785,10.254,25.879,0
1539629236.000,11.230,22.461,30.762,6.348,9.766,0
1539629236.004,8.789,26.367,28.809,2.441,36.621,0
1539629236.008,9.277,22.461,32.715,11.230,58.594,0
1539629236.012,19.531,21.484,34.180,18.555,-22.461,0
1539629236.016,18.066,29.297,30.762,14.160,-27.832,0
1539629236.020,17.578,30.273,33.203,16.602,-9.766,0
1539629236.024,27.344,32.227,30.273,22.461,59.570,0
1539629236.028,19.043,34.668,19.531,12.207,71.777,0
1539629236.032,4.395,31.738,25.391,8.789,-20.508,0
1539629236.035,16.113,30.273,31.250,10.742,2.930,0
1539629236.039,21.484,30.762,33.691,15.625,12.695,0
1539629236.043,19.043,33.203,29.297,18.555,-3.906,0
1539629236.047,25.879,36.133,29.297,20.508,71.289,0
1539629236.051,28.809,41.016,39.062,25.879,114.258,0
1539629236.055,31.738,40.039,40.527,20.996,32.227,0
1539629236.059,26.855,37.109,37.109,19.531,44.434,0
1539629236.063,20.020,38.574,30.762,17.090,88.867,0
1539629236.067,22.461,34.668,27.344,19.531,81.055,0
1539629236.071,25.879,32.715,25.391,25.391,50.293,0
1539629236.074,17.578,31.738,25.879,15.137,0.000,0
1539629236.078,16.602,34.180,21.973,10.254,-9.277,0
1539629236.082,24.902,42.969,20.996,17.578,38.574,0
1539629236.086,20.020,42.969,30.273,27.344,91.309,0
1539629236.090,22.461,35.156,34.668,23.438,60.547,0
1539629236.094,20.020,30.762,37.109,14.648,43.457,0
1539629236.098,13.672,31.738,35.645,19.531,83.984,0
1539629236.102,21.484,29.785,27.832,25.879,26.367,0
1539629236.106,25.391,34.668,20.996,28.320,3.906,0
1539629236.110,21.484,35.645,20.508,29.785,49.805,0
1539629236.114,20.020,34.180,23.438,21.484,34.180,0
1539629236.117,24.414,39.062,24.902,20.996,-0.977,0
1539629236.121,26.367,38.086,24.902,24.902,-19.531,0
1539629236.125,20.996,41.992,28.320,17.090,-0.488,0
1539629236.129,32.227,43.945,27.832,17.090,5.859,0
1539629236.133,32.227,41.504,25.879,21.484,-31.738,0
1539629236.137,22.949,40.527,29.297,23.926,-4.395,0
1539629236.141,27.832,39.062,28.809,36.133,20.020,0
1539629236.145,27.832,33.691,24.414,30.762,40.527,0
1539629236.149,30.273,43.945,26.367,14.648,83.984,0
1539629236.153,35.645,47.852,25.391,20.020,86.914,0
1539629236.157,30.273,36.621,24.902,21.973,72.266,0
1539629236.160,24.414,40.039,27.832,13.672,44.434,0
1539629236.164,15.137,39.551,22.461,9.766,42.969,0
1539629236.168,19.531,40.039,21.484,9.277,-6.836,0
1539629236.172,30.762,41.504,25.391,20.996,7.812,0
1539629236.176,32.715,33.691,25.391,28.809,62.012,0
1539629236.180,29.297,37.598,24.902,24.414,75.195,0
1539629236.184,30.273,38.086,26.367,29.785,82.031,0
1539629236.188,25.391,32.227,25.879,30.762,84.473,0
1539629236.192,20.508,31.738,25.879,20.996,67.871,0
1539629236.196,27.344,36.133,23.926,18.555,20.020,0
1539629236.199,26.367,44.922,25.391,29.785,34.180,0
1539629236.203,20.508,41.992,32.715,25.391,91.797,0
1539629236.207,30.273,32.227,32.227,18.066,88.379,0
1539629236.211,32.227,31.250,19.531,22.949,10.254,0
1539629236.215,25.879,33.691,16.602,25.391,18.066,0
1539629236.219,30.762,36.133,20.508,26.367,39.551,0
1539629236.223,37.109,40.039,27.344,30.273,11.230,0
1539629236.227,31.250,34.668,35.156,32.715,20.020,0
1539629236.231,21.973,32.227,34.180,27.344,72.266,0
1539629236.235,22.461,39.062,31.250,26.855,102.539,0
1539629236.239,32.715,43.457,32.227,37.109,68.359,0
1539629236.242,34.668,40.039,36.133,33.203,94.727,0
1539629236.246,26.855,38.086,32.715,25.391,97.656,0
1539629236.250,29.297,38.574,28.809,30.762,13.184,0
1539629236.254,34.668,38.574,28.320,42.480,27.832,0
1539629236.258,33.691,39.062,28.320,35.156,86.914,0
1539629236.262,33.691,39.062,28.809,29.297,33.691,0
1539629236.266,36.133,39.551,30.762,34.180,22.461,0
1539629236.270,29.785,35.645,28.809,27.832,41.504,0
1539629236.274,31.250,38.086,29.297,31.250,42.969,0
1539629236.278,35.645,36.621,30.762,27.832,29.297,0
1539629236.282,38.086,32.715,28.320,28.809,-22.949,0
1539629236.285,30.762,30.273,26.367,21.484,0.488,0
1539629236.289,24.902,32.227,27.344,20.020,41.992,0
1539629236.293,26.367,36.621,30.762,28.320,23.926,0
1539629236.297,17.578,28.809,31.738,23.438,37.109,0
1539629236.301,20.020,28.320,30.762,25.879,17.090,0
1539629236.305,28.809,32.715,29.297,28.320,3.418,0
1539629236.309,24.414,30.762,30.762,26.367,-10.742,0
1539629236.313,17.090,34.180,30.762,27.344,3.418,0
1539629236.317,29.785,33.691,28.320,21.484,44.922,0
1539629236.321,35.645,31.738,27.344,20.020,17.090,0
1539629236.324,21.973,31.250,20.508,21.484,14.160,0
1539629236.328,20.996,29.785,20.508,19.043,-3.906,0
1539629236.332,12.695,29.297,23.438,11.719,-0.488,0
1539629236.336,5.371,29.297,23.926,7.324,48.340,0
1539629236.340,16.113,31.738,32.227,14.160,89.355,0
1539629236.344,19.531,30.273,27.832,18.555,103.027,0
1539629236.348,21.484,24.414,19.531,23.438,47.852,0
1539629236.352,27.344,22.949,28.320,28.320,41.992,0
1539629236.356,27.344,26.855,30.273,23.926,13.672,0
1539629236.360,27.344,35.156,26.367,16.113,41.992,0
1539629236.364,28.320,31.250,27.344,22.949,125.488,0
1539629236.367,26.367,26.367,27.344,29.785,82.031,0
1539629236.371,33.203,32.227,32.715,29.785,53.711,0
1539629236.375,26.855,28.809,32.227,29.785,36.133,0
1539629236.379,15.137,32.227,23.926,22.461,15.137,0
1539629236.383,24.414,33.691,26.367,17.090,-0.977,0
1539629236.387,36.133,31.738,26.367,23.438,70.801,0
1539629236.391,30.762,34.180,25.391,32.227,96.680,0
1539629236.395,21.484,31.250,29.297,30.273,24.902,0
1539629236.399,30.273,27.832,28.320,18.555,10.742,0
1539629236.403,31.738,24.902,22.949,18.066,39.062,0
1539629236.407,24.902,22.461,22.461,23.926,59.570,0
1539629236.410,24.902,30.762,28.809,24.414,26.855,0
1539629236.414,31.250,32.227,37.109,31.738,-21.973,0
1539629236.418,37.109,26.855,36.133,30.273,-7.812,0
1539629236.422,20.020,33.203,27.344,29.785,60.059,0
1539629236.426,17.578,38.574,25.879,34.668,72.754,0
1539629236.430,26.367,32.715,27.832,29.297,22.949,0
1539629236.434,22.461,23.926,26.367,20.996,72.754,0
1539629236.438,22.461,26.855,29.785,19.531,98.145,0
1539629236.442,21.973,35.156,28.320,24.902,63.965,0
1539629236.446,20.508,38.086,22.949,25.879,28.320,0
1539629236.449,29.785,34.668,25.879,26.855,23.926,0
1539629236.453,28.809,35.645,28.809,23.438,39.062,0
1539629236.457,24.414,38.086,29.297,21.973,14.648,0
1539629236.461,25.879,32.715,29.297,20.020,-3.418,0
1539629236.465,25.879,25.391,24.902,25.879,16.113,0
1539629236.469,39.062,25.391,24.414,29.785,46.875,0
1539629236.473,29.785,28.809,23.926,23.926,1.465,0
1539629236.477,16.602,31.250,21.484,26.855,-2.930,0
1539629236.481,26.855,31.250,24.902,26.855,27.344,0
1539629236.485,20.020,31.250,25.391,20.996,44.922,0
1539629236.489,14.648,35.156,28.320,25.879,30.762,0
1539629236.492,20.020,34.668,30.273,40.039,36.621,0
1539629236.496,15.137,27.832,29.297,35.645,78.125,0
1539629236.500,16.602,30.273,30.273,28.320,7.812,0
1539629236.504,24.902,36.133,35.156,20.996,-0.488,0
1539629236.508,26.367,39.551,38.574,30.273,77.148,0
1539629236.512,17.578,31.738,28.809,36.133,54.688,0
1539629236.516,20.996,27.344,19.043,30.762,10.742,0
1539629236.520,15.137,28.809,27.832,30.273,14.160,0
1539629236.524,8.789,27.832,35.156,28.320,42.480,0
1539629236.528,20.508,33.203,28.809,28.320,20.996,0
1539629236.532,20.020,36.133,32.715,30.762,64.941,0
1539629236.535,18.555,39.062,38.574,29.785,67.871,0
1539629236.539,23.926,35.156,38.086,25.391,8.301,0
1539629236.543,20.020,33.203,33.691,24.902,-4.395,0
1539629236.547,27.832,32.715,27.832,32.227,34.180,0
1539629236.551,26.367,22.461,25.391,25.391,17.090,0
1539629236.555,20.996,23.438,23.438,21.484,-33.203,0
1539629236.559,36.133,30.273,25.391,38.574,18.555,0
1539629236.563,32.227,35.156,30.273,37.109,86.426,0
1539629236.567,22.949,38.086,29.297,25.879,33.203,0
1539629236.571,26.855,34.180,28.320,25.391,17.578,0
1539629236.574,24.902,32.715,27.832,24.414,51.270,0
1539629236.578,25.879,37.109,27.344,23.926,36.133,0
1539629236.582,33.691,38.574,32.227,25.391,18.066,0
1539629236.586,27.832,36.133,31.738,22.949,3.418,0
1539629236.590,26.855,35.645,27.344,23.438,63.965,0
1539629236.594,26.855,33.203,23.926,25.391,44.922,0
1539629236.598,27.832,33.691,22.461,20.996,56.641,0
1539629236.602,44.922,37.598,27.832,19.531,58.105,0
1539629236.606,34.180,34.668,31.738,20.508,-25.391,0
1539629236.610,15.137,36.621,30.762,16.113,-6.836,0
1539629236.614,27.832,35.645,26.367,23.438,26.855,0
1539629236.617,30.273,31.250,28.809,36.133,18.066,0
1539629236.621,22.461,30.762,34.180,30.762,-18.066,0
1539629236.625,23.438,29.785,30.273,23.926,8.789,0
1539629236.629,17.090,26.367,25.391,25.391,23.438,0
1539629236.633,26.855,27.344,26.367,31.738,12.207,0
1539629236.637,38.574,31.738,24.902,33.203,56.152,0
1539629236.641,34.668,33.691,25.391,29.297,83.984,0
1539629236.645,29.785,36.133,29.297,30.762,94.727,0
1539629236.649,36.621,37.109,28.809,34.180,53.711,0
1539629236.653,37.109,28.320,29.785,35.645,8.789,0
1539629236.657,34.668,27.344,33.691,33.691,32.227,0
1539629236.660,41.992,33.691,31.738,36.133,23.438,0
1539629236.664,51.758,35.156,26.367,48.340,54.688,0
1539629236.668,40.527,42.969,18.555,37.109,79.590,0
1539629236.672,20.020,49.805,12.207,13.672,34.668,0
1539629236.676,29.785,44.922,19.043,8.789,12.695,0
1539629236.680,32.227,37.598,22.949,15.625,26.367,0
1539629236.684,26.855,34.668,26.855,21.973,78.613,0
1539629236.688,30.273,35.156,23.438,24.414,61.035,0
1539629236.692,25.391,35.645,21.973,25.391,8.789,0
1539629236.696,18.555,30.762,25.879,17.578,7.324,0
1539629236.699,18.555,28.320,27.344,20.996,23.926,0
1539629236.703,20.508,34.668,24.414,20.508,-7.812,0
1539629236.707,22.949,37.109,20.996,27.344,3.906,0
1539629236.711,36.133,38.086,23.926,36.133,116.699,0
1539629236.715,34.668,35.645,26.367,29.297,68.359,0
1539629236.719,28.320,35.645,32.715,23.926,31.738,0
1539629236.723,36.133,35.645,31.738,20.508,27.832,0
1539629236.727,23.438,27.832,27.344,20.020,42.480,0
1539629236.731,14.160,30.762,36.621,23.438,24.902,0
1539629236.735,17.090,27.832,35.645,17.578,47.363,0
1539629236.739,16.113,20.020,28.809,12.695,48.828,0
1539629236.742,14.160,25.879,28.320,13.672,4.395,0
1539629236.746,17.090,33.203,28.809,16.602,33.203,0
1539629236.750,23.438,38.574,31.738,19.531,26.367,0
1539629236.754,31.250,33.203,34.180,18.066,0.000,0
1539629236.758,28.320,30.273,31.738,21.484,42.969,0
1539629236.762,22.949,38.574,31.250,31.250,67.871,0
1539629236.766,32.715,35.156,33.691,24.414,13.184,0
1539629236.770,37.598,34.180,35.645,20.508,25.879,0
1539629236.774,29.297,38.086,33.203,29.297,20.508,0
1539629236.778,21.484,38.086,26.367,23.926,-17.578,0
1539629236.782,20.508,36.133,23.438,20.996,21.484,0
1539629236.785,24.902,37.598,27.344,20.508,25.879,0
1539629236.789,23.926,36.621,29.785,14.648,-19.531,0
1539629236.793,19.043,27.344,29.297,12.695,-38.086,0
1539629236.797,25.879,29.785,26.855,23.926,8.301,2
1539629236.801,30.273,35.156,36.133,31.250,18.555,0
1539629236.805,20.508,36.133,40.527,25.879,21.973,0
1539629236.809,22.461,38.574,31.738,17.578,-1.465,0
1539629236.813,30.762,33.203,30.273,19.531,1.953,0
1539629236.817,23.926,29.785,31.738,18.066,64.453,0
1539629236.821,17.578,30.762,33.203,7.324,16.113,0
1539629236.824,19.043,33.203,32.715,6.836,-4.395,0
1539629236.828,24.414,34.180,27.832,12.695,-1.465,0
1539629236.832,22.949,29.785,28.809,8.301,40.039,0
1539629236.836,26.855,32.715,35.645,16.113,36.621,0
1539629236.840,33.203,35.645,38.086,26.367,26.367,0
1539629236.844,35.645,33.203,33.203,22.461,44.434,0
1539629236.848,28.320,41.504,28.809,16.602,13.672,0
1539629236.852,20.020,41.504,29.785,20.020,31.738,0
1539629236.856,27.344,33.203,31.250,23.926,22.949,0
1539629236.860,31.738,34.180,32.715,30.273,43.945,0
1539629236.864,28.809,38.574,30.762,27.344,40.527,0
1539629236.867,38.086,40.039,21.484,18.555,39.062,0
1539629236.871,42.480,38.086,20.508,17.578,48.340,0
1539629236.875,30.273,37.598,30.273,25.879,17.090,0
1539629236.879,24.414,42.969,33.203,38.086,33.203,0
1539629236.883,28.809,40.527,33.691,35.645,30.762,0
1539629236.887,35.156,39.062,36.133,31.738,-5.371,0
1539629236.891,32.227,41.504,37.109,35.156,20.996,0
1539629236.895,32.715,41.992,37.598,33.203,30.273,0
1539629236.899,34.668,41.016,36.133,31.250,39.551,0
1539629236.903,26.367,34.668,35.645,23.438,46.875,0
1539629236.907,24.902,29.785,37.109,27.832,-4.395,0
1539629236.910,18.066,34.180,32.715,27.344,26.367,0
1539629236.914,15.137,36.621,33.203,16.113,62.500,0
1539629236.918,21.484,35.645,35.645,19.043,-38.086,0
1539629236.922,22.461,35.156,34.668,23.926,-31.250,0
1539629236.926,27.832,33.203,31.738,21.973,41.016,0
1539629236.930,31.738,35.645,34.180,28.320,19.531,0
1539629236.934,26.855,34.180,29.297,27.344,52.246,0
1539629236.938,34.668,30.762,26.855,24.414,83.984,0
1539629236.942,49.805,34.180,29.297,31.738,64.941,0
1539629236.946,28.809,33.691,26.367,24.902,64.453,0
1539629236.949,9.277,25.879,29.297,12.695,50.293,0
1539629236.953,13.184,31.250,34.668,12.695,55.176,0
1539629236.957,16.602,38.574,34.180,12.207,67.871,0
1539629236.961,20.508,39.551,35.156,23.438,19.043,0
1539629236.965,19.531,33.203,36.621,35.156,-6.836,0
1539629236.969,28.809,32.715,30.762,33.203,16.602,0
1539629236.973,41.016,34.180,26.367,34.180,86.914,0
1539629236.977,29.297,33.203,28.809,26.855,55.176,0
1539629236.981,18.555,37.598,28.320,25.879,20.020,0
1539629236.985,26.367,34.668,26.367,37.109,20.996,0
1539629236.989,19.531,32.715,29.785,35.645,20.996,0
1539629236.992,24.414,37.109,31.250,27.832,47.852,0
1539629236.996,27.832,36.621,30.273,24.902,-5.859,0
1539629237.000,24.414,32.227,30.273,25.879,-38.086,0
1539629237.004,32.715,33.203,27.344,28.320,-11.719,0
1539629237.008,24.902,40.039,27.832,20.508,-6.836,0
1539629237.012,21.484,36.621,31.738,24.414,61.523,0
1539629237.016,28.320,27.344,30.273,30.273,77.637,0
1539629237.020,39.062,29.785,25.879,26.855,46.387,0
1539629237.024,36.621,31.738,24.902,28.320,86.914,0
1539629237.028,15.137,24.902,30.273,27.832,89.844,0
1539629237.032,33.203,27.832,31.738,26.367,91.309,0
1539629237.035,33.203,32.227,25.391,24.414,62.988,0
1539629237.039,14.160,22.949,22.949,37.109,56.152,0
1539629237.043,30.273,31.738,32.227,38.086,7.324,0
1539629237.047,30.273,45.898,39.062,24.414,39.062,0
1539629237.051,23.926,39.062,38.574,26.855,50.781,0
1539629237.055,23.438,34.668,35.156,27.344,14.160,0
1539629237.059,13.672,37.598,29.785,16.602,81.543,0
1539629237.063,21.973,38.086,29.297,15.137,66.895,0
1539629237.067,38.574,37.109,31.250,21.973,9.277,0
1539629237.071,35.645,36.133,26.367,21.484,6.348,0
1539629237.074,25.391,28.809,27.832,34.180,22.949,0
1539629237.078,21.973,28.809,34.668,32.715,51.758,0
1539629237.082,33.203,35.156,32.227,17.578,38.574,0
1539629237.086,30.273,32.227,32.715,17.578,-35.645,0
1539629237.090,22.461,27.344,32.227,22.949,-3.418,0
1539629237.094,27.832,24.414,30.762,30.273,41.016,0
1539629237.098,30.762,28.320,22.461,31.250,43.945,0
1539629237.102,25.879,32.715,17.578,24.414,47.363,0
1539629237.106,33.203,30.762,24.414,13.184,68.848,0
1539629237.110,42.969,33.203,22.461,17.578,55.176,0
1539629237.114,23.926,34.668,23.438,24.414,8.301,0
1539629237.117,23.438,33.691,26.367,14.160,14.160,0
1539629237.121,36.133,28.320,27.832,13.672,-19.531,0
1539629237.125,30.273,25.879,33.691,20.996,13.672,0
1539629237.129,20.996,33.691,31.738,21.484,92.285,0
1539629237.133,24.902,32.227,22.461,17.090,69.336,0
1539629237.137,38.086,28.320,23.926,21.484,81.055,0
1539629237.141,34.668,27.344,30.762,32.715,60.059,0
1539629237.145,24.414,31.250,31.738,34.668,5.859,0
1539629237.149,38.086,36.133,35.645,21.484,45.410,0
1539629237.153,31.738,35.156,36.621,11.230,52.246,0
1539629237.157,25.391,34.668,32.227,14.648,8.789,0
1539629237.160,30.273,29.297,31.250,18.555,23.926,0
1539629237.164,24.902,26.367,27.344,29.785,-5.371,0
1539629237.168,28.320,33.203,28.320,35.156,-13.672,0
1539629237.172,36.133,38.086,30.273,28.320,-0.977,0
1539629237.176,32.715,35.156,27.344,30.762,23.438,0
1539629237.180,24.414,29.297,35.645,33.691,55.664,0
1539629237.184,28.809,26.855,37.109,26.855,12.207,0
1539629237.188,32.227,32.715,34.180,29.785,49.316,0
1539629237.192,29.785,35.156,34.668,28.809,17.578,0
1539629237.196,31.738,26.367,30.762,20.020,10.254,0
1539629237.199,25.391,24.414,25.391,25.391,51.758,0
1539629237.203,33.691,28.809,23.438,26.855,51.758,0
1539629237.207,31.738,31.738,28.809,27.344,71.289,0
1539629237.211,27.832,36.133,34.180,34.668,64.941,0
1539629237.215,33.691,38.086,34.668,40.527,51.270,0
1539629237.219,35.156,37.598,35.156,32.227,45.410,0
1539629237.223,33.203,39.551,34.180,38.086,51.758,0
1539629237.227,29.785,33.203,35.156,41.504,97.656,0
1539629237.231,34.180,25.391,31.250,31.250,87.402,0
1539629237.235,34.180,29.297,27.344,40.039,69.824,0
1539629237.239,24.414,32.227,31.250,29.785,41.992,0
1539629237.242,21.973,37.109,36.621,25.391,-2.441,0
1539629237.246,34.180,42.480,36.133,28.320,71.777,0
1539629237.250,35.156,39.062,31.250,21.973,77.637,0
1539629237.254,41.016,32.227,33.691,29.785,52.246,0
1539629237.258,49.316,28.320,29.297,34.180,9.766,0
1539629237.262,40.039,28.320,27.832,41.992,38.086,0
1539629237.266,40.527,28.320,30.273,42.969,110.352,0
1539629237.270,31.250,31.250,24.902,31.738,98.633,0
1539629237.274,35.645,34.668,32.715,28.809,45.898,0
1539629237.278,31.738,29.297,33.691,27.344,46.875,0
1539629237.282,14.160,29.785,25.391,28.809,33.203,0
1539629237.285,12.695,30.762,32.227,21.973,30.273,0
1539629237.289,20.508,23.926,38.086,17.090,42.480,0
1539629237.293,28.809,30.273,37.109,18.066,57.617,0
1539629237.297,13.184,34.180,35.156,13.184,17.090,0
1539629237.301,10.254,33.691,33.203,16.113,18.066,0
1539629237.305,16.602,38.086,29.297,12.207,58.105,0
1539629237.309,7.324,31.250,23.438,4.395,36.621,0
1539629237.313,7.324,24.414,23.438,3.418,9.277,0
1539629237.317,7.324,29.297,30.762,15.625,39.062,0
1539629237.321,10.254,34.180,28.809,19.531,18.066,0
1539629237.324,17.090,35.156,25.879,12.207,-4.883,0
1539629237.328,21.973,32.715,29.785,17.090,-8.301,0
1539629237.332,21.973,30.273,31.250,15.137,-3.418,0
1539629237.336,21.973,32.715,28.320,21.484,16.602,0
1539629237.340,30.273,34.180,23.926,30.762,17.578,0
1539629237.344,33.203,24.902,20.996,31.250,-16.602,0
1539629237.348,24.902,22.461,18.555,25.391,-9.766,0
1539629237.352,28.320,30.762,27.344,29.297,5.371,0
1539629237.356,36.621,32.715,31.738,40.527,25.391,0
1539629237.360,33.203,32.227,28.809,44.922,100.098,0
1539629237.364,28.809,31.250,32.715,35.156,100.098,0
1539629237.367,30.273,22.949,28.809,21.484,49.316,0
1539629237.371,37.109,21.973,27.832,35.156,37.598,0
1539629237.375,33.691,31.738,26.855,28.809,21.484,0
1539629237.379,40.039,36.133,18.066,23.926,18.066,0
1539629237.383,57.129,30.273,16.113,40.039,48.828,0
1539629237.387,39.062,26.367,23.926,34.180,67.871,0
1539629237.391,13.672,23.438,33.203,26.855,102.051,0
1539629237.395,10.254,20.020,32.227,25.879,77.148,0
1539629237.399,23.926,20.020,31.738,23.926,-24.902,0
1539629237.403,36.621,24.902,32.227,32.715,-55.176,0
1539629237.407,29.785,31.250,27.344,30.273,-37.598,0
1539629237.410,22.949,29.297,28.320,20.508,25.391,0
1539629237.414,24.414,26.367,36.133,25.879,26.855,0
1539629237.418,27.344,32.715,36.621,21.973,39.551,0
1539629237.422,26.855,28.809,30.762,16.602,30.762,0
1539629237.426,30.762,25.879,33.203,24.414,8.301,0
1539629237.430,33.691,28.809,35.156,31.738,17.090,0
1539629237.434,37.109,26.855,30.762,22.949,-15.625,0
1539629237.438,31.738,26.367,30.273,12.207,-5.859,0
1539629237.442,18.066,26.855,28.320,11.230,-7.324,0
1539629237.446,10.254,26.855,23.926,12.695,-53.223,0
1539629237.449,19.531,29.297,22.949,17.578,-31.738,0
1539629237.453,29.785,24.902,28.320,18.066,19.531,0
1539629237.457,21.484,16.113,30.762,21.484,39.062,0
1539629237.461,17.090,20.996,30.762,23.926,75.684,0
1539629237.465,13.184,25.879,31.738,18.066,50.781,0
1539629237.469,17.090,24.414,23.926,12.695,27.344,0
1539629237.473,26.367,20.996,23.926,20.020,38.086,0
1539629237.477,26.855,25.391,29.785,22.949,1.953,0
1539629237.481,37.109,21.973,28.809,14.160,35.156,0
1539629237.485,23.438,16.602,23.438,14.648,90.332,0
1539629237.489,12.207,28.320,23.438,16.113,58.594,0
1539629237.492,28.809,34.668,32.227,13.672,-12.207,0
1539629237.496,25.391,34.668,27.344,18.555,-7.324,0
1539629237.500,28.809,32.227,20.508,25.879,55.176,0
1539629237.504,28.320,28.320,22.949,24.902,12.207,0
1539629237.508,22.461,23.926,24.414,19.043,51.758,0
1539629237.512,18.555,26.855,26.855,16.602,46.875,0
1539629237.516,18.066,36.621,26.855,19.531,-31.738,0
1539629237.520,27.344,35.645,24.414,29.297,46.387,0
1539629237.524,28.320,26.367,21.973,34.668,93.262,0
1539629237.528,33.691,28.320,25.391,27.344,41.016,0
1539629237.532,38.086,35.645,32.227,24.414,44.922,0
1539629237.535,33.203,36.621,26.855,22.949,45.898,0
1539629237.539,25.879,35.645,23.926,20.020,-1.465,0
1539629237.543,22.949,34.180,29.785,21.973,-45.898,0
1539629237.547,26.855,30.762,34.668,28.320,-23.926,0
1539629237.551,27.832,31.738,30.762,18.555,10.254,0
1539629237.555,21.484,35.156,29.785,21.484,23.926,0
1539629237.559,25.879,27.344,32.715,30.273,33.691,0
1539629237.563,27.832,31.738,33.203,24.414,57.617,0
1539629237.567,22.949,38.086,36.621,30.273,60.059,0
1539629237.571,22.949,33.203,33.203,31.738,60.059,0
1539629237.574,23.926,36.133,28.809,25.391,34.668,0
1539629237.578,30.762,36.133,24.414,29.297,51.758,0
1539629237.582,33.691,32.227,27.344,26.855,78.613,0
1539629237.586,24.902,35.156,29.785,20.508,53.711,0
1539629237.590,24.414,35.645,28.809,22.461,43.945,0
1539629237.594,22.949,33.203,26.855,26.855,42.480,0
1539629237.598,19.043,34.668,24.414,25.391,29.785,0
1539629237.602,27.832,38.574,26.855,20.020,78.125,0
1539629237.606,30.273,33.203,25.879,25.879,39.551,0
1539629237.610,21.484,29.785,24.414,29.297,7.812,0
1539629237.614,20.508,34.180,28.320,29.297,56.152,0
1539629237.617,36.621,31.738,25.879,28.320,57.129,0
1539629237.621,44.922,28.809,28.320,30.762,41.992,0
1539629237.625,31.738,31.250,32.715,33.203,2.930,0
1539629237.629,20.508,31.738,31.250,34.668,0.000,0
1539629237.633,22.461,31.250,33.691,35.645,81.543,0
1539629237.637,25.391,30.762,33.203,30.273,71.289,0
1539629237.641,22.461,21.973,28.320,30.273,39.062,0
1539629237.645,31.250,25.391,25.879,41.992,71.289,0
1539629237.649,36.133,31.250,25.391,42.969,63.477,0
1539629237.653,35.645,34.180,27.832,31.738,54.688,0
1539629237.657,36.133,33.691,32.227,27.832,64.941,0
1539629237.660,30.273,29.785,34.180,24.902,68.359,0
1539629237.664,27.344,34.180,27.832,22.949,109.863,0
1539629237.668,32.715,24.902,22.461,27.344,57.129,0
1539629237.672,29.785,19.531,23.438,29.297,14.648,0
1539629237.676,26.855,30.273,29.785,23.926,-0.977,0
1539629237.680,34.668,35.645,28.320,25.391,19.531,0
1539629237.684,33.203,36.133,23.438,28.320,-6.348,0
1539629237.688,34.180,41.016,22.949,29.297,-51.758,0
1539629237.692,39.551,39.062,21.973,32.715,30.762,0
1539629237.696,44.434,27.344,23.438,34.668,65.918,0
1539629237.699,34.668,30.762,27.832,34.180,0.488,0
1539629237.703,29.297,32.227,28.320,32.227,-26.855,0
1539629237.707,32.227,30.762,28.320,41.016,-20.508,0
1539629237.711,32.715,36.133,28.320,40.527,-5.371,0
1539629237.715,41.016,36.133,26.855,21.973,-28.320,0
1539629237.719,40.039,31.738,27.832,23.926,-26.367,0
1539629237.723,27.832,30.762,29.297,25.391,-1.465,0
1539629237.727,21.484,35.156,31.250,25.879,-9.766,0
1539629237.731,36.133,35.645,29.785,28.809,20.508,0
1539629237.735,36.133,28.809,31.738,24.414,-5.371,0
1539629237.739,24.902,28.809,35.156,20.508,35.645,0
1539629237.742,25.391,30.273,38.086,22.461,35.645,0
1539629237.746,22.461,26.855,34.180,27.344,-28.320,0
1539629237.750,22.949,31.250,30.273,24.414,21.973,0
1539629237.754,29.785,36.133,32.227,19.531,11.719,0
1539629237.758,26.367,41.016,36.133,23.926,2.441,0
1539629237.762,23.438,43.457,39.551,29.297,41.016,0
1539629237.766,21.973,32.715,35.156,22.461,23.926,0
1539629237.770,20.996,24.902,30.273,20.020,16.113,0
1539629237.774,16.602,26.855,30.273,13.672,14.160,0
1539629237.778,18.555,28.809,35.156,11.230,7.324,0
1539629237.782,16.602,33.203,39.062,15.625,16.602,0
1539629237.785,13.184,38.086,35.156,12.695,24.902,0
1539629237.789,18.066,39.551,33.691,17.090,22.949,0
1539629237.793,21.484,30.273,36.133,21.973,47.852,0
1539629237.797,24.902,23.438,32.227,19.043,87.402,0
1539629237.801,28.809,30.273,30.762,18.066,99.609,0
1539629237.805,24.902,37.598,32.715,23.438,77.637,0
1539629237.809,13.672,39.551,30.273,19.043,60.547,0
1539629237.813,20.508,39.551,31.250,20.020,43.457,0
1539629237.817,28.320,33.691,27.344,26.367,24.902,0
1539629237.821,30.762,29.297,26.367,25.391,43.945,0
1539629237.824,35.645,31.250,28.320,21.973,46.387,0
1539629237.828,33.203,30.762,30.273,26.367,11.230,0
1539629237.832,24.414,31.250,35.156,28.320,50.293,0
1539629237.836,25.879,33.203,28.320,21.973,16.113,0
1539629237.840,30.762,30.273,25.879,19.531,5.859,0
1539629237.844,25.879,29.785,26.855,12.207,45.410,0
1539629237.848,29.297,29.785,21.484,20.020,8.301,0
1539629237.852,29.785,22.461,23.438,30.273,-1.953,0
1539629237.856,28.809,25.879,26.855,23.926,16.113,0
1539629237.860,45.898,34.668,29.297,37.109,90.820,0
1539629237.864,41.992,38.574,31.738,35.156,89.355,0
1539629237.867,25.391,33.691,34.180,22.949,26.855,0
1539629237.871,22.949,33.203,36.133,37.598,10.742,0
1539629237.875,19.531,31.738,33.691,35.156,67.383,0
1539629237.879,32.227,31.250,38.086,31.738,73.242,0
1539629237.883,42.969,33.691,39.062,34.668,41.992,0
1539629237.887,31.250,33.203,30.762,29.785,46.387,0
1539629237.891,31.250,32.715,26.855,29.297,28.320,0
1539629237.895,39.551,34.668,27.832,28.809,64.941,0
1539629237.899,37.598,42.480,32.715,29.785,43.945,0
1539629237.903,37.598,37.109,29.785,29.785,-8.789,0
1539629237.907,34.180,26.855,31.738,38.574,40.039,0
1539629237.910,30.273,29.785,38.086,49.805,34.180,0
1539629237.914,32.715,33.691,37.109,29.297,16.602,0
1539629237.918,36.133,33.691,37.598,10.254,64.453,0
1539629237.922,29.785,33.203,31.250,13.184,68.848,0
1539629237.926,20.996,34.180,21.973,13.672,41.992,0
1539629237.930,26.855,34.668,26.367,7.812,35.645,0
1539629237.934,24.414,30.762,29.785,12.695,2.930,0
1539629237.938,17.578,28.809,35.156,25.879,22.461,0
1539629237.942,21.973,30.273,35.156,24.414,55.176,0
1539629237.946,16.113,31.250,32.227,21.973,16.602,0
1539629237.949,15.137,33.691,35.156,23.438,21.973,0
1539629237.953,10.254,34.180,33.203,16.602,46.875,0
1539629237.957,9.277,32.227,31.250,13.672,49.316,0
1539629237.961,14.160,26.855,32.227,17.578,18.555,0
1539629237.965,19.531,20.996,37.109,16.113,-0.977,0
1539629237.969,19.531,23.926,38.574,17.578,-6.348,0
1539629237.973,16.602,29.297,35.156,26.367,30.273,0
1539629237.977,20.508,35.645,33.203,28.809,47.852,0
1539629237.981,32.715,41.992,29.785,23.438,24.902,0
1539629237.985,34.180,40.527,28.320,28.809,9.277,0
1539629237.989,22.461,36.133,26.367,29.297,-20.508,0
1539629237.992,21.484,35.645,27.344,25.391,-22.461,0
1539629237.996,34.180,34.668,35.156,32.715,27.344,0
1539629238.000,41.504,37.598,33.691,32.227,43.457,0
1539629238.004,32.227,47.363,25.879,31.250,69.336,0
1539629238.008,31.250,46.387,24.902,15.137,118.652,0
1539629238.012,38.574,36.621,28.809,9.766,95.703,0
1539629238.016,33.203,36.621,30.273,19.531,52.246,0
1539629238.020,26.367,39.062,26.367,23.438,61.523,0
1539629238.024,36.621,34.668,22.949,24.414,51.758,0
1539629238.028,44.922,34.668,27.344,26.367,9.277,0
1539629238.032,25.391,35.156,31.738,24.902,46.387,0
1539629238.035,18.555,31.250,29.785,23.926,96.191,0
1539629238.039,33.203,32.715,25.391,30.762,59.082,0
1539629238.043,44.922,35.645,21.973,34.180,39.551,0
1539629238.047,37.598,29.785,24.414,30.762,51.270,0
1539629238.051,26.367,27.344,30.762,29.297,-4.883,0
1539629238.055,20.508,31.250,31.738,26.855,-9.277,0
1539629238.059,19.043,35.645,29.297,22.461,43.945,0
1539629238.063,22.461,36.133,28.809,30.762,78.125,0
1539629238.067,31.738,35.156,25.879,34.180,57.129,0
1539629238.071,29.785,30.762,25.391,36.133,9.766,0
1539629238.074,31.250,27.344,31.738,33.203,38.086,0
1539629238.078,33.691,32.227,33.691,21.484,50.781,0
1539629238.082,16.113,32.227,30.762,13.184,24.902,0
1539629238.086,11.230,37.598,28.809,20.020,30.273,0
1539629238.090,25.879,44.434,28.809,31.250,45.410,0
1539629238.094,28.809,45.898,28.320,33.691,29.785,0
1539629238.098,35.156,43.457,28.320,24.414,21.484,0
1539629238.102,31.738,40.039,26.367,22.949,-4.883,0
1539629238.106,25.879,39.062,29.785,32.227,41.016,0
1539629238.110,24.414,35.156,37.598,32.227,82.520,0
1539629238.114,21.973,27.832,34.668,34.180,45.410,0
1539629238.117,33.203,33.691,29.785,30.762,11.230,0
1539629238.121,19.043,33.203,28.320,22.461,12.695,0
1539629238.125,11.719,30.273,27.344,26.855,35.645,0
1539629238.129,25.391,38.086,21.484,32.715,33.203,0
1539629238.133,29.297,40.039,19.531,26.367,37.598,0
1539629238.137,23.438,35.156,23.438,22.949,52.734,0
1539629238.141,31.250,30.273,30.273,20.020,62.012,0
1539629238.145,28.809,30.762,33.691,18.555,32.715,0
1539629238.149,20.996,29.297,28.320,30.273,58.594,0
1539629238.153,21.973,25.879,29.297,27.344,53.711,0
1539629238.157,20.996,30.273,28.809,17.090,-19.531,0
1539629238.160,21.484,37.109,26.855,17.090,0.000,0
1539629238.164,26.367,40.039,25.391,27.832,54.688,0
1539629238.168,35.156,45.410,27.344,35.156,49.805,0
1539629238.172,39.551,39.551,31.250,24.902,34.668,0
1539629238.176,32.227,33.203,34.668,22.461,24.414,0
1539629238.180,28.809,30.762,41.016,27.344,11.230,0
1539629238.184,26.855,29.785,35.156,23.926,24.414,2
1539629238.188,28.320,35.156,28.809,32.227,19.531,0
1539629238.192,38.086,33.691,29.785,31.738,-5.859,0
1539629238.196,35.645,28.809,25.879,20.508,16.113,0
1539629238.199,34.668,27.832,22.949,24.902,30.762,0
1539629238.203,36.621,37.109,30.762,33.203,13.184,0
1539629238.207,29.297,39.062,34.180,38.086,45.410,0
1539629238.211,36.133,32.715,32.227,32.227,92.285,0
1539629238.215,34.180,36.133,34.180,28.809,35.645,0
1539629238.219,35.156,36.133,29.785,24.902,-12.207,0
1539629238.223,31.250,27.344,22.949,25.391,47.852,0
1539629238.227,30.273,26.367,21.973,24.414,67.871,0
1539629238.231,33.691,30.762,19.531,29.785,62.012,0
1539629238.235,29.785,39.551,28.809,44.434,55.176,0
1539629238.239,28.320,42.480,37.109,36.133,14.648,0
1539629238.242,25.391,38.574,28.320,26.855,40.527,0
1539629238.246,25.879,32.227,33.203,27.832,57.129,0
1539629238.250,30.273,33.691,35.645,22.461,22.949,0
1539629238.254,32.715,39.551,33.203,19.043,-17.578,0
1539629238.258,41.016,36.621,34.180,23.926,28.809,0
1539629238.262,29.297,33.203,28.320,24.902,43.945,0
1539629238.266,18.066,35.645,25.879,25.391,31.250,0
1539629238.270,22.949,35.156,29.785,29.297,18.066,0
1539629238.274,19.043,26.855,31.250,26.855,-16.113,0
1539629238.278,19.531,28.320,33.203,24.414,11.719,0
1539629238.282,12.207,28.809,34.668,27.832,12.695,0
1539629238.285,8.789,23.926,34.668,31.250,49.316,0
1539629238.289,17.578,23.438,36.133,24.902,81.543,0
1539629238.293,9.766,27.832,32.227,19.043,19.531,0
1539629238.297,13.672,35.645,26.367,25.879,2.441,0
1539629238.301,24.414,37.109,29.297,27.344,-13.184,0
1539629238.305,30.273,39.551,26.367,28.320,-39.062,0
1539629238.309,37.109,41.504,23.926,21.973,-18.555,0
1539629238.313,32.715,35.156,27.832,15.137,9.277,0
1539629238.317,32.227,27.832,28.320,20.020,10.742,0
1539629238.321,24.902,29.297,26.367,26.367,-17.578,0
1539629238.324,18.066,34.180,29.297,22.949,-18.066,0
1539629238.328,21.973,31.738,32.227,21.973,4.883,0
1539629238.332,24.414,27.344,29.297,27.344,50.293,0
1539629238.336,29.785,25.879,27.344,24.902,42.480,0
1539629238.340,36.133,34.180,29.785,24.902,41.504,0
1539629238.344,37.598,33.691,34.180,25.879,32.227,0
1539629238.348,35.156,30.762,30.762,22.949,56.152,0
1539629238.352,38.574,39.551,27.832,20.508,58.105,0
1539629238.356,40.039,38.086,24.414,28.809,24.902,0
1539629238.360,28.809,34.180,24.414,34.668,50.781,0
1539629238.364,20.996,33.203,24.414,23.438,83.496,0
1539629238.367,28.809,35.645,22.461,22.949,52.246,0
1539629238.371,37.598,35.156,24.902,28.320,20.020,0
1539629238.375,28.809,26.855,22.949,22.461,9.766,0
1539629238.379,18.555,26.855,25.879,22.461,56.641,0
1539629238.383,23.438,33.691,29.785,29.785,39.551,0
1539629238.387,30.273,37.109,26.855,30.273,-5.859,0
1539629238.391,32.227,33.691,24.902,33.203,29.785,0
1539629238.395,26.367,23.926,24.414,39.551,52.734,0
1539629238.399,23.926,29.297,21.484,30.273,67.383,0
1539629238.403,28.809,37.109,21.973,20.020,86.426,0
1539629238.407,21.973,32.715,25.879,18.555,65.430,0
1539629238.410,21.484,34.180,29.785,21.973,24.414,0
1539629238.414,14.160,33.691,30.762,18.555,46.387,0
1539629238.418,11.230,31.250,28.809,14.648,69.824,0
1539629238.422,22.461,31.250,31.250,15.625,20.996,0
1539629238.426,29.785,31.738,31.738,14.648,34.668,0
1539629238.430,23.926,29.785,26.367,21.973,14.160,0
1539629238.434,21.484,30.273,24.902,24.414,-3.418,0
1539629238.438,26.855,34.668,26.367,14.160,1.465,0
1539629238.442,16.113,28.809,20.508,18.066,-17.578,0
1539629238.446,22.949,26.367,19.531,15.625,1.953,0
1539629238.449,28.809,33.691,25.879,15.137,27.344,0
1539629238.453,18.066,32.715,28.320,22.949,67.871,0
1539629238.457,23.926,26.855,28.320,22.949,61.035,0
1539629238.461,16.113,26.367,30.762,20.508,17.090,0
1539629238.465,14.160,30.273,28.320,16.602,82.031,0
1539629238.469,23.438,30.762,23.926,13.672,106.445,0
1539629238.473,21.973,33.691,23.926,11.719,21.973,0
1539629238.477,23.926,32.715,24.414,11.230,30.762,0
1539629238.481,26.367,24.902,26.855,21.484,0.000,0
1539629238.485,17.578,25.879,29.785,22.461,28.320,0
1539629238.489,15.625,32.715,31.738,18.066,64.941,0
1539629238.492,32.227,30.762,31.250,24.902,12.695,0
1539629238.496,37.598,28.320,33.203,31.250,16.602,0
1539629238.500,21.973,38.086,32.715,20.020,34.668,0
1539629238.504,31.250,40.527,26.855,17.090,12.207,0
1539629238.508,38.574,33.203,24.414,28.320,27.832,0
1539629238.512,30.762,29.785,33.691,29.297,93.750,0
1539629238.516,25.879,33.203,39.062,23.926,62.012,0
1539629238.520,14.648,36.621,32.715,15.625,36.133,0
1539629238.524,20.996,38.574,25.391,15.137,69.824,0
1539629238.528,37.598,38.086,25.391,20.996,6.348,0
1539629238.532,30.273,30.273,30.273,24.414,-8.789,0
1539629238.535,26.367,25.879,26.367,22.461,-18.066,0
1539629238.539,25.391,29.785,18.066,17.578,-22.461,0
1539629238.543,20.508,33.203,20.508,15.137,32.227,0
1539629238.547,24.902,37.598,29.785,16.602,26.367,0
1539629238.551,19.531,41.504,35.156,19.043,49.316,0
1539629238.555,16.113,38.086,35.156,17.578,55.664,0
1539629238.559,27.344,26.855,29.297,14.648,-4.883,0
1539629238.563,20.508,25.879,24.414,7.324,-16.113,0
1539629238.567,22.949,28.320,22.461,13.672,32.227,0
1539629238.571,32.715,34.668,22.461,20.508,-6.348,0
1539629238.574,30.762,35.645,20.508,24.902,11.719,0
1539629238.578,28.809,30.762,24.414,29.785,55.176,0
1539629238.582,32.715,33.691,32.715,24.902,55.664,0
1539629238.586,30.273,34.668,37.598,17.578,20.020,0
1539629238.590,19.531,34.180,33.203,13.672,21.973,0
1539629238.594,18.066,35.645,28.809,19.531,90.820,0
1539629238.598,20.020,34.180,29.297,15.137,20.508,0
1539629238.602,29.297,32.227,22.461,13.672,-54.688,0
1539629238.606,13.672,32.715,20.996,10.742,36.133,0
1539629238.610,11.719,36.133,28.320,11.719,36.621,0
1539629238.614,22.949,35.645,32.715,21.484,-8.301,0
1539629238.617,20.508,36.621,35.645,20.508,44.434,0
1539629238.621,25.879,32.715,35.645,20.508,38.086,0
1539629238.625,46.387,28.320,29.297,21.484,12.207,0
1539629238.629,41.016,34.180,25.879,17.578,4.395,0
1539629238.633,23.438,39.062,28.320,21.973,-16.113,0
1539629238.637,28.809,42.480,27.344,19.043,20.020,0
1539629238.641,27.344,41.504,23.438,14.160,63.965,0
1539629238.645,22.949,32.715,23.438,21.484,62.500,0
1539629238.649,27.832,30.762,28.809,24.414,10.742,0
1539629238.653,23.438,36.621,34.180,18.555,32.227,0
1539629238.657,20.508,35.156,30.273,18.066,73.730,0
1539629238.660,27.832,29.297,29.297,22.461,46.387,0
1539629238.664,32.715,31.738,29.785,27.832,-2.930,0
1539629238.668,32.227,31.250,23.926,27.344,43.945,0
1539629238.672,20.020,30.762,23.926,23.438,80.078,0
1539629238.676,17.090,34.180,24.414,21.973,55.664,0
1539629238.680,20.996,32.715,21.973,18.066,69.824,0
1539629238.684,21.484,34.668,26.855,19.531,13.672,0
1539629238.688,14.160,34.180,31.250,21.484,32.227,0
1539629238.692,12.695,29.297,33.691,20.996,50.781,0
1539629238.696,19.531,27.832,29.297,22.461,-4.883,0
1539629238.699,12.207,30.273,25.879,20.020,31.250,0
1539629238.703,13.184,29.297,23.438,25.391,71.289,0
1539629238.707,16.602,25.391,21.484,21.484,48.828,0
1539629238.711,13.184,28.320,19.531,18.066,33.203,0
1539629238.715,15.625,29.785,20.996,18.066,29.785,0
1539629238.719,26.367,30.762,29.297,9.277,29.785,0
1539629238.723,19.531,26.367,34.180,12.207,70.312,0
1539629238.727,22.949,27.832,35.156,12.207,73.242,0
1539629238.731,23.438,30.762,33.203,7.324,67.871,0
1539629238.735,4.395,24.902,30.762,9.277,109.863,0
1539629238.739,11.230,22.949,34.668,12.207,121.582,0
1539629238.742,19.531,22.949,31.738,11.230,80.078,0
1539629238.746,13.672,29.785,29.297,19.043,42.480,0
1539629238.750,7.324,30.273,31.738,22.461,25.879,0
1539629238.754,13.184,28.320,28.809,16.113,70.801,0
1539629238.758,22.949,34.180,32.227,20.508,32.715,0
1539629238.762,28.809,38.574,33.691,26.367,6.348,0
1539629238.766,17.578,31.738,29.785,14.160,88.379,0
1539629238.770,6.348,21.484,35.645,-2.441,64.941,0
1539629238.774,6.348,24.902,37.598,1.465,20.508,0
1539629238.778,11.230,31.738,32.715,9.766,-14.648,0
1539629238.782,14.648,36.133,27.832,12.207,4.883,0
1539629238.785,0.000,29.785,25.879,5.859,37.109,0
1539629238.789,-5.371,23.438,25.391,0.000,40.039,0
1539629238.793,-3.906,25.391,22.949,-3.418,53.711,0
1539629238.797,2.441,25.879,21.973,0.977,31.738,0
1539629238.801,9.277,32.227,24.414,12.207,12.695,0
1539629238.805,17.090,33.691,27.344,18.066,17.578,0
1539629238.809,21.973,22.461,32.227,20.996,42.969,0
1539629238.813,20.508,20.020,27.344,21.484,33.691,0
1539629238.817,24.902,20.996,19.531,23.926,38.574,0
1539629238.821,19.531,17.090,20.996,24.414,30.762,0
1539629238.824,15.625,20.508,23.926,16.113,39.062,0
1539629238.828,17.090,26.367,23.438,19.043,52.246,0
1539629238.832,23.926,27.832,19.531,20.996,47.363,0
1539629238.836,20.996,25.879,14.160,18.555,57.129,0
1539629238.840,9.766,26.855,16.113,16.113,37.598,0
1539629238.844,14.648,29.297,18.555,21.484,-25.879,0
1539629238.848,12.695,22.461,20.996,25.391,-23.926,0
1539629238.852,14.648,22.949,28.809,22.461,25.391,0
1539629238.856,15.137,29.297,32.227,21.484,16.602,0
1539629238.860,10.742,27.344,24.902,22.949,17.578,0
1539629238.864,12.207,31.738,19.531,21.973,21.484,0
1539629238.867,15.137,39.551,22.461,22.461,31.250,0
1539629238.871,20.020,36.133,23.926,28.809,-0.488,0
1539629238.875,28.320,30.273,25.391,29.297,0.000,0
1539629238.879,23.926,28.320,26.367,20.508,47.363,0
1539629238.883,23.438,30.762,22.461,24.414,39.551,0
1539629238.887,31.250,29.785,25.879,27.832,10.254,0
1539629238.891,15.137,28.809,29.785,22.949,1.953,0
1539629238.895,15.137,32.715,23.438,31.250,17.090,0
1539629238.899,29.297,36.133,29.297,39.551,1.465,0
1539629238.903,29.785,34.180,33.203,25.391,10.742,0
1539629238.907,19.043,30.273,26.855,20.020,70.801,0
1539629238.910,10.254,26.367,26.855,15.625,51.758,0
1539629238.914,15.137,27.832,21.973,6.348,59.570,0
1539629238.918,18.066,35.156,16.113,10.742,71.777,0
1539629238.922,22.949,37.109,24.902,11.719,38.574,0
1539629238.926,24.902,39.062,27.344,10.742,4.883,0
1539629238.930,14.160,32.715,16.113,11.230,-3.418,0
1539629238.934,12.207,26.367,18.066,12.207,78.125,0
1539629238.938,20.996,26.367,29.785,12.207,89.844,0
1539629238.942,22.461,25.879,32.227,19.043,-2.930,0
1539629238.946,24.902,26.367,25.391,24.902,32.227,0
1539629238.949,34.180,21.484,24.902,24.414,72.754,0
1539629238.953,26.367,22.461,27.832,27.344,47.363,0
1539629238.957,27.832,28.809,29.297,34.668,51.758,0
1539629238.961,32.715,33.691,30.762,43.945,23.438,0
1539629238.965,34.180,33.203,25.879,42.480,61.523,0
1539629238.969,33.203,27.832,24.902,29.785,31.250,0
1539629238.973,28.809,32.227,27.832,25.879,10.254,0
1539629238.977,41.992,36.133,30.273,34.180,63.965,0
1539629238.981,42.969,34.180,32.227,37.109,23.926,0
1539629238.985,36.621,35.156,28.320,29.297,34.668,0
1539629238.989,38.574,34.180,25.391,29.785,54.688,0
1539629238.992,39.062,34.668,27.344,29.297,5.371,0
1539629238.996,37.109,35.156,30.273,21.484,26.367,0
1539629239.000,41.992,30.762,30.273,22.949,56.641,0
1539629239.004,43.457,32.715,33.691,31.738,55.176,0
1539629239.008,41.992,32.715,39.551,28.809,64.453,0
1539629239.012,31.738,27.344,32.227,28.809,44.922,0
1539629239.016,23.926,35.156,30.273,21.973,15.137,0
1539629239.020,23.438,40.039,32.715,15.137,35.156,0
1539629239.024,20.508,35.645,33.203,20.996,53.223,0
1539629239.028,24.902,31.250,32.227,14.160,24.902,0
1539629239.032,34.668,26.855,27.832,13.184,33.691,0
1539629239.035,31.250,32.715,25.391,12.695,62.988,0
1539629239.039,30.762,35.156,26.855,28.320,7.812,0
1539629239.043,33.691,39.551,30.762,31.738,44.434,0
1539629239.047,35.156,35.645,33.691,18.066,67.383,0
1539629239.051,29.297,32.227,27.832,24.414,43.945,0
1539629239.055,23.438,40.527,26.855,21.973,99.121,0
1539629239.059,28.809,41.992,30.762,23.438,41.992,0
1539629239.063,29.785,33.691,32.227,24.414,3.906,0
1539629239.067,26.367,28.809,31.738,20.996,55.176,0
1539629239.071,25.879,31.738,25.879,18.066,49.805,0
1539629239.074,22.461,35.156,25.879,15.137,16.113,0
1539629239.078,15.625,38.086,33.691,20.508,23.438,0
1539629239.082,14.160,39.062,38.574,28.320,-5.859,0
1539629239.086,15.625,37.109,35.156,28.320,6.348,0
1539629239.090,20.020,28.809,34.180,24.902,-15.137,0
1539629239.094,21.973,25.391,36.133,22.461,-12.207,0
1539629239.098,31.738,28.809,31.738,14.648,6.836,0
1539629239.102,25.879,30.762,31.738,13.672,-33.203,0
1539629239.106,16.113,32.227,29.785,16.602,-4.395,0
1539629239.110,20.020,26.367,23.926,19.043,33.203,0
1539629239.114,18.066,21.484,25.391,21.484,28.320,0
1539629239.117,19.531,30.273,31.738,15.625,6.348,0
1539629239.121,19.043,34.668,33.203,15.625,25.879,0
1539629239.125,23.926,33.203,36.133,22.949,46.875,0
1539629239.129,26.855,32.227,31.250,20.508,46.387,0
1539629239.133,25.391,31.738,22.949,27.832,25.879,0
1539629239.137,28.809,34.668,25.391,29.297,47.852,0
1539629239.141,28.320,31.250,24.902,22.461,101.562,0
1539629239.145,27.344,27.832,22.461,26.855,101.074,0
1539629239.149,27.344,22.461,26.855,20.508,81.543,0
1539629239.153,18.555,26.367,26.855,21.973,2.930,0
1539629239.157,18.066,33.691,25.391,20.020,20.020,0
1539629239.160,20.996,30.273,32.227,11.230,54.199,0
1539629239.164,10.254,28.809,37.109,19.531,51.270,0
1539629239.168,10.254,31.250,37.109,25.879,85.449,0
1539629239.172,25.879,38.086,37.598,20.508,74.707,0
1539629239.176,28.809,38.574,34.180,24.414,91.309,0
1539629239.180,30.762,32.227,32.715,30.273,33.203,0
1539629239.184,26.855,27.832,32.227,32.715,24.414,0
1539629239.188,15.137,20.020,24.414,28.320,62.012,0
1539629239.192,29.297,20.996,29.297,21.484,31.738,0
1539629239.196,33.691,25.879,37.109,27.832,14.160,0
1539629239.199,20.020,24.414,34.668,26.855,5.371,0
1539629239.203,24.414,31.250,39.062,24.902,45.410,0
1539629239.207,25.879,37.109,42.480,37.109,41.016,0
1539629239.211,24.414,28.320,34.180,30.762,25.879,0
1539629239.215,31.738,23.438,35.156,24.902,82.520,0
1539629239.219,36.621,25.391,33.203,30.762,113.770,0
1539629239.223,43.457,27.344,30.273,27.832,62.012,0
1539629239.227,48.340,34.668,32.715,32.715,31.250,0
1539629239.231,39.551,35.645,26.855,30.762,45.898,0
1539629239.235,24.902,34.668,26.855,20.508,61.035,0
1539629239.239,29.297,34.180,36.621,30.273,75.684,0
1539629239.242,39.062,27.832,36.621,31.738,50.293,0
1539629239.246,36.133,33.203,32.715,28.809,9.766,0
1539629239.250,20.508,37.109,32.715,25.879,-41.016,0
1539629239.254,21.973,32.227,34.668,23.926,-7.812,0
1539629239.258,24.414,32.227,38.086,26.367,39.062,0
1539629239.262,20.508,31.250,33.691,25.391,8.301,0
1539629239.266,25.879,34.668,28.809,22.949,10.742,0
1539629239.270,28.809,35.156,27.344,18.555,-14.648,0
1539629239.274,27.344,25.391,28.809,23.926,-31.250,0
1539629239.278,33.691,27.832,30.762,28.809,1.465,0
1539629239.282,33.691,34.668,32.227,31.250,30.762,0
1539629239.285,26.367,30.762,31.250,28.809,45.410,0
1539629239.289,30.762,28.809,26.367,26.855,24.414,0
1539629239.293,37.109,33.691,28.809,29.297,-24.902,0
1539629239.297,41.504,35.156,32.227,26.367,-0.977,0
1539629239.301,35.156,36.621,28.809,26.367,40.527,0
1539629239.305,36.133,34.180,24.414,33.691,71.289,0
1539629239.309,36.133,28.809,19.043,34.668,36.133,0
1539629239.313,30.273,27.344,21.973,30.273,39.062,0
1539629239.317,35.645,26.367,29.297,34.668,19.531,0
1539629239.321,22.461,27.344,30.762,29.297,68.359,0
1539629239.324,15.625,29.785,30.273,23.438,97.168,0
1539629239.328,22.461,38.086,31.250,37.598,9.766,0
1539629239.332,26.367,34.668,33.203,36.133,17.578,0
1539629239.336,32.227,30.762,36.621,34.180,-14.160,0
1539629239.340,36.133,33.691,34.180,35.645,-39.062,0
1539629239.344,35.645,33.203,29.785,28.320,12.695,0
1539629239.348,36.133,33.691,26.855,33.691,46.387,0
1539629239.352,34.668,34.180,15.625,35.156,77.148,0
1539629239.356,28.320,32.715,16.602,25.879,83.496,0
1539629239.360,26.367,29.785,27.344,35.156,8.789,0
1539629239.364,47.852,31.250,29.785,46.387,31.738,0
1539629239.367,51.758,29.785,25.391,25.391,58.105,0
1539629239.371,22.949,30.273,24.414,-2.930,39.062,0
1539629239.375,17.090,32.715,29.297,1.953,51.758,0
1539629239.379,23.438,33.203,32.715,18.555,41.504,0
1539629239.383,24.414,33.203,34.668,20.508,49.805,0
1539629239.387,21.484,26.367,31.738,18.066,31.250,0
1539629239.391,33.691,27.344,24.414,29.785,59.570,0
1539629239.395,36.621,34.180,18.066,34.180,56.641,0
1539629239.399,33.691,33.203,21.973,29.297,79.102,0
1539629239.403,40.039,26.855,25.879,31.250,104.980,0
1539629239.407,35.645,28.320,26.855,43.945,60.059,0
1539629239.410,34.668,31.738,33.203,45.898,-4.883,0
1539629239.414,34.668,24.902,26.367,36.133,-42.969,0
1539629239.418,30.273,23.438,22.461,36.621,-13.184,0
1539629239.422,26.367,29.297,31.250,35.156,9.277,0
1539629239.426,38.574,37.598,32.227,32.227,13.184,0
1539629239.430,37.109,40.527,34.668,31.250,41.504,0
1539629239.434,22.461,32.715,32.227,26.855,-10.742,0
1539629239.438,21.484,24.414,22.949,28.320,-43.457,0
1539629239.442,25.391,27.832,23.438,34.180,-20.020,0
1539629239.446,22.949,32.715,26.855,31.738,7.324,0
1539629239.449,16.602,31.738,33.691,28.809,-12.695,0
1539629239.453,17.578,25.391,30.273,23.926,24.414,0
1539629239.457,14.648,32.227,22.461,20.508,59.082,0
1539629239.461,17.578,33.203,29.785,20.996,17.090,0
1539629239.465,24.902,22.461,29.297,20.508,24.902,0
1539629239.469,20.020,28.320,24.414,19.043,29.785,0
1539629239.473,11.719,32.227,33.203,24.414,20.020,0
1539629239.477,12.695,32.227,36.621,31.250,16.113,0
1539629239.481,15.625,36.621,35.156,20.020,55.664,0
1539629239.485,27.344,32.715,30.762,20.508,67.383,0
1539629239.489,31.738,34.180,28.320,20.996,85.938,0
1539629239.492,23.438,39.551,27.344,25.391,64.941,0
1539629239.496,28.320,37.109,31.738,35.645,12.695,0
1539629239.500,33.203,37.109,33.203,25.879,27.344,0
1539629239.504,32.227,36.133,22.949,21.484,25.391,0
1539629239.508,33.691,34.668,20.996,24.414,-16.602,0
1539629239.512,25.391,29.297,22.949,22.461,-20.996,0
1539629239.516,32.227,27.832,24.902,21.484,-20.996,0
1539629239.520,39.551,31.250,28.320,18.555,-38.086,0
1539629239.524,37.109,34.180,25.879,22.949,3.906,0
1539629239.528,22.949,32.715,23.926,31.738,11.719,0
1539629239.532,18.066,25.391,24.414,30.762,4.395,0
1539629239.535,19.043,27.344,26.367,26.367,28.809,1
1539629239.539,34.668,36.621,28.809,26.367,57.129,0
1539629239.543,38.086,33.691,31.250,20.508,99.609,0
1539629239.547,18.555,28.320,28.320,12.207,61.035,0
1539629239.551,20.020,31.250,24.414,19.043,27.344,0
1539629239.555,26.367,39.551,25.879,18.555,14.160,0
1539629239.559,21.484,37.598,26.367,22.461,4.883,0
1539629239.563,21.973,27.344,24.414,31.250,37.109,0
1539629239.567,29.785,28.809,27.832,33.691,77.148,0
1539629239.571,37.109,30.273,31.738,25.391,62.988,0
1539629239.574,24.902,25.879,34.180,22.461,48.828,0
1539629239.578,18.555,30.762,36.133,31.250,5.371,0
1539629239.582,26.855,38.086,31.738,20.020,18.555,0
1539629239.586,19.043,38.574,32.227,12.207,37.598,0
1539629239.590,13.672,24.414,34.668,18.555,22.949,0
1539629239.594,16.113,21.973,32.227,26.367,77.637,0
1539629239.598,25.391,29.785,29.297,20.508,41.992,0
1539629239.602,33.691,32.715,26.855,19.043,7.324,0
1539629239.606,25.391,38.086,24.414,26.367,37.109,0
1539629239.610,15.137,40.527,24.902,26.367,58.105,0
1539629239.614,15.625,34.180,25.391,21.484,44.434,0
1539629239.617,24.414,28.809,21.484,18.555,51.270,0
1539629239.621,27.832,28.809,26.367,22.461,87.402,0
1539629239.625,25.879,27.344,28.320,18.066,72.754,0
1539629239.629,21.973,25.879,20.996,15.137,60.547,0
1539629239.633,14.160,24.414,24.414,11.719,-5.859,0
1539629239.637,15.137,27.832,22.949,10.254,15.625,0
1539629239.641,23.926,32.227,21.484,21.484,88.867,0
1539629239.645,26.367,28.320,20.996,30.762,40.039,0
1539629239.649,24.902,24.902,22.949,28.320,31.250,0
1539629239.653,24.902,25.879,29.297,22.461,54.688,0
1539629239.657,23.926,27.344,31.250,28.320,57.617,0
1539629239.660,28.320,29.785,27.344,28.809,42.480,0
1539629239.664,26.855,31.250,27.344,23.926,49.316,0
1539629239.668,32.227,32.227,25.391,28.809,24.902,0
1539629239.672,34.180,33.691,22.949,28.320,-1.465,0
1539629239.676,24.902,34.668,24.902,25.391,30.273,0
1539629239.680,28.809,38.574,24.414,29.785,64.453,0
1539629239.684,37.598,35.156,20.996,29.297,75.684,0
1539629239.688,33.203,30.273,20.996,19.043,55.664,0
1539629239.692,32.715,32.715,25.391,22.949,15.137,0
1539629239.696,31.250,32.715,26.855,22.461,7.324,0
1539629239.699,23.438,30.762,27.832,17.578,44.434,0
1539629239.703,25.391,25.391,31.250,22.461,83.984,0
1539629239.707,26.855,29.785,30.273,30.762,58.594,0
1539629239.711,37.109,29.297,27.344,33.203,13.184,0
1539629239.715,36.621,27.832,28.320,29.785,-1.465,0
1539629239.719,18.066,31.250,26.367,22.949,16.113,0
1539629239.723,18.555,28.809,26.855,13.672,40.039,0
1539629239.727,24.902,31.250,29.785,26.367,49.805,0
1539629239.731,27.832,32.227,32.715,27.832,25.391,0
1539629239.735,24.902,25.879,34.180,25.879,8.301,0
1539629239.739,33.691,25.391,33.691,25.391,14.648,0
1539629239.742,26.367,33.203,29.785,20.020,10.254,0
1539629239.746,13.672,34.668,26.855,26.855,34.668,0
1539629239.750,16.602,28.320,25.879,24.414,79.102,0
1539629239.754,18.066,25.391,30.762,19.531,74.707,0
1539629239.758,25.391,27.344,29.297,16.602,39.062,0
1539629239.762,27.832,26.367,27.344,17.090,14.648,0
1539629239.766,27.832,27.344,28.320,18.066,45.410,0
1539629239.770,21.973,31.738,30.762,16.602,52.246,0
1539629239.774,10.742,31.738,36.621,20.508,33.691,0
1539629239.778,17.578,26.855,32.227,20.996,36.133,0
1539629239.782,26.367,21.484,24.414,24.902,21.484,0
1539629239.785,30.273,27.832,24.902,21.973,42.480,0
1539629239.789,25.391,30.273,24.414,13.672,63.965,0
1539629239.793,15.625,32.227,20.508,19.531,47.363,0
1539629239.797,17.090,37.109,26.367,19.531,68.359,0
1539629239.801,28.809,28.809,25.879,8.789,46.387,0
1539629239.805,41.504,28.320,24.902,13.672,30.762,0
1539629239.809,32.227,34.180,27.344,18.066,0.977,0
1539629239.813,20.020,37.598,27.344,23.926,34.668,0
1539629239.817,35.156,37.598,29.297,27.832,65.430,0
1539629239.821,43.457,33.203,29.785,23.438,46.387,0
1539629239.824,26.855,39.062,33.203,28.320,54.688,0
1539629239.828,31.250,43.457,26.855,25.391,14.160,0
1539629239.832,35.645,41.504,21.973,23.926,29.785,0
1539629239.836,21.973,38.086,28.320,23.438,23.438,0
1539629239.840,27.832,39.551,31.738,23.438,4.883,0
1539629239.844,30.762,43.457,36.133,28.809,-3.906,0
1539629239.848,34.668,41.504,38.574,31.250,4.395,0
1539629239.852,43.457,39.551,41.992,37.109,29.297,0
1539629239.856,46.875,39.062,43.457,35.645,54.688,0
1539629239.860,45.410,38.086,37.598,31.250,86.426,0
1539629239.864,29.785,40.527,30.762,28.320,62.988,0
1539629239.867,23.926,38.574,30.762,25.879,22.461,0
1539629239.871,28.809,34.668,38.086,31.250,40.527,0
1539629239.875,27.344,37.598,35.645,31.250,76.172,0
1539629239.879,24.902,42.480,35.156,25.879,26.367,0
1539629239.883,30.273,40.527,38.086,21.484,-13.184,0
1539629239.887,39.062,37.598,35.156,28.809,14.648,0
1539629239.891,39.551,39.551,35.645,37.109,2.441,0
1539629239.895,33.203,41.016,36.621,28.320,-2.441,0
1539629239.899,22.461,36.621,33.203,34.668,29.297,0
1539629239.903,35.156,30.273,30.273,36.133,26.855,0
1539629239.907,47.852,30.273,36.133,23.438,39.062,0
1539629239.910,31.738,37.598,33.203,22.949,61.035,0
1539629239.914,25.391,31.738,30.273,29.297,-2.930,0
1539629239.918,28.809,26.367,33.691,31.738,14.648,0
1539629239.922,30.273,28.320,31.738,29.297,34.180,0
1539629239.926,34.180,30.273,35.156,26.367,27.344,0
1539629239.930,34.180,31.738,32.227,30.273,51.758,0
1539629239.934,19.043,33.691,27.832,29.785,65.918,0
1539629239.938,20.508,35.645,36.621,33.203,28.320,0
1539629239.942,26.855,34.180,41.016,39.062,19.043,0
1539629239.946,29.785,38.086,40.527,37.109,38.574,0
1539629239.949,31.250,37.109,41.992,36.621,-22.461,0
1539629239.953,22.949,30.762,35.645,36.133,-28.809,0
1539629239.957,24.414,28.809,30.273,35.156,19.531,0
1539629239.961,23.926,30.762,32.227,31.250,3.906,0
1539629239.965,21.973,30.273,34.180,24.902,-6.348,0
1539629239.969,23.438,26.855,32.227,24.902,-21.973,0
1539629239.973,26.855,31.250,29.785,30.273,21.484,0
1539629239.977,41.992,37.598,36.621,37.109,42.480,0
1539629239.981,34.180,33.203,42.969,43.945,78.125,0
1539629239.985,24.902,26.367,40.039,39.551,58.594,0
1539629239.989,31.738,28.320,32.227,41.016,-31.738,0
1539629239.992,32.715,33.691,30.273,40.527,10.742,0
1539629239.996,35.645,36.621,35.645,37.109,58.594,0
1539629240.000,43.945,36.133,38.086,30.273,59.570,0
1539629240.004,41.992,34.668,29.297,25.391,14.160,0
1539629240.008,28.809,26.367,28.809,30.762,19.043,0
1539629240.012,30.273,18.555,37.598,33.203,72.266,0
1539629240.016,35.156,26.855,38.086,33.203,32.227,0
1539629240.020,32.227,37.598,37.109,32.715,-13.184,0
1539629240.024,23.926,39.062,34.668,27.832,72.266,0
1539629240.028,25.391,35.156,27.832,20.996,102.051,0
1539629240.032,22.949,29.297,25.879,20.020,61.035,0
1539629240.035,24.414,24.902,22.461,21.484,5.371,0
1539629240.039,27.832,30.273,20.508,23.438,14.648,0
1539629240.043,23.438,31.738,28.809,26.367,45.898,0
1539629240.047,19.043,32.227,26.855,21.484,51.270,0
1539629240.051,18.066,34.668,24.414,21.484,10.254,0
1539629240.055,16.113,36.133,28.320,26.855,-0.977,0
1539629240.059,15.137,41.016,28.809,31.738,34.668,0
1539629240.063,28.320,41.992,27.832,33.691,2.441,0
1539629240.067,32.227,32.227,29.785,27.344,5.859,0
1539629240.071,30.273,32.715,29.297,21.484,46.875,0
1539629240.074,26.367,34.668,20.996,24.414,26.855,0
1539629240.078,28.809,29.297,25.391,29.297,14.160,0
1539629240.082,27.344,29.297,34.180,27.344,35.645,0
1539629240.086,24.414,29.297,35.645,23.438,24.902,0
1539629240.090,24.414,36.621,34.668,22.949,35.156,0
1539629240.094,21.484,38.086,28.320,20.508,91.797,0
1539629240.098,29.785,32.715,30.273,23.438,67.383,0
1539629240.102,28.809,36.133,34.180,31.250,42.480,0
1539629240.106,30.762,39.062,34.668,29.785,88.867,0
1539629240.110,43.945,35.645,37.598,26.855,12.695,0
1539629240.114,34.180,31.250,28.320,27.344,-29.297,0
1539629240.117,18.066,35.645,24.902,18.066,31.250,0
1539629240.121,26.367,33.691,31.738,18.066,8.301,0
1539629240.125,33.691,29.297,27.344,26.367,10.742,0
1539629240.129,29.297,32.715,24.902,25.391,27.832,0
1539629240.133,23.438,36.133,29.785,30.273,23.438,0
1539629240.137,19.531,34.668,30.273,31.738,16.602,0
1539629240.141,20.020,31.250,32.715,30.762,34.668,0
1539629240.145,18.066,30.273,36.133,28.809,70.801,0
1539629240.149,23.926,24.902,27.832,20.996,21.973,0
1539629240.153,35.645,28.320,23.438,19.043,13.184,0
1539629240.157,36.133,30.762,29.785,21.973,36.133,0
1539629240.160,28.320,29.297,27.832,21.484,-21.973,0
1539629240.164,33.691,34.180,25.391,18.555,29.785,0
1539629240.168,33.691,29.785,29.785,25.879,65.430,0
1539629240.172,24.902,26.367,33.691,28.320,-9.277,0
1539629240.176,17.578,27.832,29.297,18.066,-13.184,0
1539629240.180,13.672,29.785,32.227,26.855,30.273,0
1539629240.184,20.020,31.738,37.109,23.926,65.430,0
1539629240.188,18.555,30.762,28.320,18.066,77.148,0
1539629240.192,31.250,26.367,23.926,23.438,41.992,0
1539629240.196,37.598,28.320,24.414,18.066,6.836,0
1539629240.199,12.207,22.949,28.320,18.555,28.809,0
1539629240.203,1.953,16.113,28.809,7.812,19.531,0
1539629240.207,13.672,16.113,27.832,11.230,-18.555,0
1539629240.211,18.555,20.508,30.762,17.578,23.926,0
1539629240.215,25.391,23.438,32.715,23.438,23.926,0
1539629240.219,16.602,18.066,36.133,21.484,-12.695,0
1539629240.223,3.906,23.438,36.133,3.906,47.363,0
1539629240.227,11.230,28.809,35.156,14.160,78.125,0
1539629240.231,17.578,32.227,36.621,22.949,44.922,0
1539629240.235,23.926,33.691,31.738,25.391,80.566,0
1539629240.239,28.320,37.109,34.668,26.367,95.703,0
1539629240.242,20.508,34.180,34.668,20.020,53.711,0
1539629240.246,17.578,28.320,25.391,16.602,18.066,0
1539629240.250,18.066,32.227,27.344,15.137,26.367,0
1539629240.254,18.555,29.785,28.320,13.672,42.969,0
1539629240.258,20.020,28.809,27.832,20.508,42.969,0
1539629240.262,21.973,34.180,32.715,23.438,72.754,0
1539629240.266,22.461,35.156,38.574,21.973,49.805,0
1539629240.270,32.227,40.039,34.180,30.273,0.977,0
1539629240.274,34.180,34.180,25.391,25.391,-29.785,0
1539629240.278,21.973,24.902,32.715,28.320,6.348,0
1539629240.282,24.414,27.344,37.598,33.691,80.566,0
1539629240.285,34.668,34.668,31.738,22.949,78.613,0
1539629240.289,40.527,37.109,28.320,21.973,20.020,0
1539629240.293,30.273,31.738,32.715,28.809,20.996,0
1539629240.297,32.227,27.344,38.574,31.250,24.414,0
1539629240.301,37.598,30.762,35.156,31.250,20.996,0
1539629240.305,24.902,37.598,29.297,32.715,-11.230,0
1539629240.309,26.855,33.691,31.250,39.062,-8.789,0
1539629240.313,29.297,29.297,28.809,32.715,46.875,0
1539629240.317,28.320,31.250,26.855,27.832,32.227,0
1539629240.321,28.320,34.180,25.879,27.832,29.785,0
1539629240.324,30.762,30.762,25.879,25.879,41.016,0
1539629240.328,31.250,28.809,28.809,28.320,15.625,0
1539629240.332,32.227,32.227,33.691,31.738,-3.906,0
1539629240.336,32.715,26.367,35.645,31.250,24.414,0
1539629240.340,22.461,18.555,31.250,35.156,74.219,0
1539629240.344,22.949,23.926,25.391,27.832,34.180,0
1539629240.348,25.391,31.250,22.949,20.020,8.301,0
1539629240.352,26.367,31.250,30.762,28.809,5.859,0
1539629240.356,33.203,29.297,34.180,37.598,12.207,0
1539629240.360,35.645,26.367,32.227,34.668,41.016,0
1539629240.364,19.043,26.855,31.250,33.203,41.016,0
1539629240.367,18.555,33.203,34.668,33.203,73.242,0
1539629240.371,32.227,29.297,39.062,27.344,62.012,0
1539629240.375,42.969,25.879,35.645,21.973,49.805,0
1539629240.379,33.203,27.832,31.250,24.902,2.930,0
1539629240.383,27.344,28.320,32.227,39.062,-31.738,0
1539629240.387,41.504,29.297,33.691,39.062,13.672,0
1539629240.391,48.340,32.227,37.109,34.180,62.500,0
1539629240.395,43.457,36.621,36.133,29.297,63.965,0
1539629240.399,28.320,32.715,32.715,30.762,42.480,0
1539629240.403,21.973,24.414,32.227,33.203,50.781,0
1539629240.407,28.320,27.344,36.621,32.227,67.871,0
1539629240.410,24.414,31.250,33.691,27.832,7.812,0
1539629240.414,26.855,29.297,23.926,25.879,-5.371,0
1539629240.418,38.086,32.227,27.832,28.320,32.715,0
1539629240.422,49.805,37.109,26.855,25.391,2.441,0
1539629240.426,33.691,36.621,23.926,22.461,-4.395,0
1539629240.430,17.090,36.133,29.297,20.996,-25.391,0
1539629240.434,31.738,34.668,22.949,18.066,-17.578,0
1539629240.438,25.879,27.344,18.555,17.578,12.207,0
1539629240.442,20.020,20.020,24.902,28.320,63.965,0
1539629240.446,28.320,24.414,34.668,30.762,82.520,0
1539629240.449,24.902,25.879,37.598,27.344,-0.488,0
1539629240.453,32.715,27.832,30.273,28.809,12.207,0
1539629240.457,29.785,35.156,23.926,33.691,30.762,0
1539629240.461,28.809,34.180,27.344,38.086,-26.855,0
1539629240.465,32.715,34.180,33.691,37.598,-22.461,0
1539629240.469,23.438,33.203,33.203,36.621,-1.953,0
1539629240.473,21.484,29.785,30.273,28.320,36.133,0
1539629240.477,29.297,31.738,30.762,25.879,11.719,0
1539629240.481,33.691,31.738,30.762,23.438,-37.598,0
1539629240.485,30.762,27.832,29.785,20.020,33.691,0
1539629240.489,19.043,28.809,33.203,21.484,40.527,0
1539629240.492,18.555,33.203,29.785,20.020,24.414,0
1539629240.496,26.367,36.621,28.809,18.066,24.414,0
1539629240.500,17.090,29.785,33.203,26.855,-37.109,0
1539629240.504,13.672,21.484,33.691,27.832,-2.441,0
1539629240.508,20.508,26.367,31.738,21.973,70.801,0
1539629240.512,24.902,28.809,29.785,26.855,41.504,0
1539629240.516,23.438,25.879,31.738,31.250,14.648,0
1539629240.520,20.996,28.320,31.738,29.297,49.805,0
1539629240.524,27.344,32.715,31.250,30.273,74.707,0
1539629240.528,36.133,39.062,28.320,24.902,17.578,0
1539629240.532,41.992,44.434,28.320,29.297,0.000,0
1539629240.535,41.504,39.551,37.598,42.480,43.945,0
1539629240.539,30.273,36.133,40.039,32.715,36.133,0
1539629240.543,22.461,35.156,33.203,22.461,67.871,0
1539629240.547,31.250,26.855,32.715,30.273,83.008,0
1539629240.551,35.645,28.809,34.668,29.785,99.609,0
1539629240.555,20.508,36.133,31.738,19.531,47.363,0
1539629240.559,20.508,35.156,28.320,17.578,-43.945,0
1539629240.563,27.344,30.762,24.414,19.043,0.000,0
1539629240.567,20.020,30.762,24.414,13.672,50.293,0
1539629240.571,22.461,29.297,22.461,16.602,80.566,0
1539629240.574,24.902,25.879,20.020,19.043,59.082,0
1539629240.578,20.508,28.320,22.461,11.230,0.000,0
1539629240.582,39.551,32.227,24.902,19.531,-16.602,0
1539629240.586,36.133,33.203,26.855,31.738,66.895,0
1539629240.590,21.484,32.715,24.414,17.090,100.586,0
1539629240.594,21.973,37.598,21.484,7.324,19.531,0
1539629240.598,20.020,36.133,25.879,9.766,6.348,0
1539629240.602,32.227,32.715,26.855,11.719,63.477,0
1539629240.606,29.785,42.480,29.785,14.160,49.316,0
1539629240.610,19.043,41.504,31.738,23.926,16.113,0
1539629240.614,29.785,34.180,30.273,27.832,36.133,0
1539629240.617,36.621,32.715,35.645,23.438,44.434,0
1539629240.621,42.480,35.645,34.668,22.949,92.285,0
1539629240.625,44.922,40.039,26.367,18.066,104.980,0
1539629240.629,28.809,35.156,26.855,20.996,105.957,0
1539629240.633,23.926,33.203,34.180,27.344,134.766,0
1539629240.637,36.133,40.527,33.203,26.367,78.125,0
1539629240.641,51.270,33.691,28.809,30.273,11.719,0
1539629240.645,34.668,21.484,28.320,30.762,11.719,0
1539629240.649,22.461,26.367,32.715,26.367,36.621,0
1539629240.653,26.367,32.227,30.273,20.996,18.066,0
1539629240.657,18.066,35.645,25.391,20.996,26.367,0
1539629240.660,26.367,39.551,26.855,18.066,80.078,0
1539629240.664,33.203,31.738,25.391,13.184,46.387,0
1539629240.668,34.668,32.227,21.973,27.344,36.133,0
1539629240.672,34.668,37.598,23.438,35.156,50.293,0
1539629240.676,41.992,31.250,26.367,29.297,43.945,0
1539629240.680,48.340,30.762,27.832,29.297,57.129,0
1539629240.684,33.203,34.180,34.180,26.855,59.082,0
1539629240.688,28.809,36.133,34.180,27.832,65.430,0
1539629240.692,26.855,36.133,30.273,27.344,12.695,0
1539629240.696,25.879,29.297,33.691,26.367,-19.531,0
1539629240.699,28.809,24.414,36.621,33.203,-10.254,0
1539629240.703,33.691,22.949,35.156,34.668,6.836,0
1539629240.707,45.898,30.273,29.785,30.762,41.992,0
1539629240.711,27.832,34.180,27.832,32.715,45.410,0
1539629240.715,22.949,35.156,35.156,42.969,60.059,0
1539629240.719,42.480,40.527,33.691,52.246,58.105,0
1539629240.723,41.016,38.574,28.320,41.504,19.531,0
1539629240.727,38.574,34.668,31.250,39.062,90.332,0
1539629240.731,33.691,32.715,34.668,45.410,132.324,0
1539629240.735,37.598,30.762,33.203,45.410,50.293,0
1539629240.739,34.180,36.621,33.691,41.016,-8.789,0
1539629240.742,30.762,41.504,37.109,41.504,23.438,0
1539629240.746,35.645,32.715,29.785,39.062,9.277,0
1539629240.750,36.133,37.109,29.297,34.668,30.762,0
1539629240.754,39.062,41.992,34.668,41.016,22.949,0
1539629240.758,36.133,40.527,36.133,44.434,-20.020,0
1539629240.762,37.109,43.457,36.621,39.551,35.645,0
1539629240.766,31.738,41.504,35.156,33.691,0.977,0
1539629240.770,30.762,43.457,31.250,33.203,-39.062,0
1539629240.774,39.551,45.410,34.180,32.227,29.785,0
1539629240.778,39.062,37.109,39.062,29.297,78.613,0
1539629240.782,38.574,40.039,38.086,38.086,46.875,0
1539629240.785,35.645,43.457,29.785,33.203,-12.207,0
1539629240.789,19.043,37.598,22.461,18.555,2.930,0
1539629240.793,10.254,37.109,21.484,17.090,58.105,0
1539629240.797,25.391,39.062,26.367,20.508,21.484,0
1539629240.801,32.227,38.574,28.809,28.320,71.289,0
1539629240.805,18.066,31.250,26.855,36.621,113.281,0
1539629240.809,17.090,23.438,23.438,27.344,65.430,0
1539629240.813,20.508,29.297,17.578,17.578,70.312,0
1539629240.817,37.109,36.133,19.043,18.066,57.617,0
1539629240.821,42.969,35.156,19.531,20.020,75.684,0
1539629240.824,34.668,37.598,12.695,27.832,18.066,0
1539629240.828,30.762,39.062,16.602,31.738,-2.441,0
1539629240.832,30.762,38.574,26.855,31.250,41.992,0
1539629240.836,33.203,37.598,30.273,30.762,22.461,0
1539629240.840,30.762,27.344,27.832,28.809,42.969,0
1539629240.844,25.879,22.461,29.785,32.227,76.660,0
1539629240.848,21.973,31.738,33.203,41.016,26.367,0
1539629240.852,25.879,35.645,29.297,33.203,27.344,0
1539629240.856,24.414,27.832,27.344,20.020,38.086,0
1539629240.860,19.531,32.715,27.832,24.414,54.688,0
1539629240.864,22.461,41.504,31.250,25.879,51.758,0
1539629240.867,22.949,33.203,28.809,17.578,44.434,0
1539629240.871,18.066,28.809,23.438,17.090,61.035,0
1539629240.875,18.555,28.809,31.738,19.043,-8.301,0
1539629240.879,33.691,31.250,38.086,21.973,-17.578,0
1539629240.883,23.438,37.598,36.621,23.926,-30.273,0
1539629240.887,19.043,35.645,30.762,28.809,3.418,0
1539629240.891,31.738,30.273,27.344,31.250,42.969,0
1539629240.895,22.461,31.738,31.250,30.273,41.016,0
1539629240.899,27.832,30.273,23.438,21.484,83.984,0
1539629240.903,30.273,27.344,20.996,15.625,80.078,0
1539629240.907,17.090,33.203,24.414,20.508,77.148,0
1539629240.910,13.672,36.621,25.391,14.648,76.172,0
1539629240.914,18.555,38.086,28.809,11.230,89.355,0
1539629240.918,9.766,34.180,29.297,13.184,51.270,0
1539629240.922,9.277,38.574,25.879,12.695,5.859,0
1539629240.926,11.230,42.969,30.273,22.949,39.551,0
1539629240.930,12.207,40.039,31.738,22.949,-14.160,0
1539629240.934,19.531,36.133,31.250,14.160,-43.945,0
1539629240.938,17.090,38.574,25.879,13.184,-15.137,0
1539629240.942,10.742,30.762,23.438,17.090,6.348,0
1539629240.946,5.859,27.832,29.785,16.602,43.457,0
1539629240.949,17.578,33.691,28.320,16.602,16.113,2
1539629240.953,28.320,30.273,31.250,25.391,29.297,0
1539629240.957,25.391,27.344,33.691,20.020,37.109,0
1539629240.961,24.414,30.273,28.320,9.766,19.531,0
1539629240.965,22.461,33.691,29.297,17.090,63.477,0
1539629240.969,6.348,38.574,33.203,15.625,34.668,0
1539629240.973,13.672,41.504,29.297,8.789,28.320,0
1539629240.977,17.578,33.691,30.762,14.160,52.734,0
1539629240.981,-3.418,26.855,30.273,22.949,52.734,0
1539629240.985,2.441,34.668,29.297,22.949,40.039,0
1539629240.989,21.484,38.574,33.691,20.996,37.598,0
1539629240.992,16.602,30.273,27.344,17.578,44.922,0
1539629240.996,23.926,35.645,26.855,26.855,44.434,0
1539629241.000,33.691,43.457,33.691,35.645,47.852,0
1539629241.004,24.902,34.668,33.691,21.484,-7.812,0
1539629241.008,32.715,28.809,32.227,19.531,0.488,0
1539629241.012,33.691,31.738,29.785,29.785,44.922,0
1539629241.016,16.113,28.809,25.879,23.438,24.902,0
1539629241.020,14.648,25.879,27.832,20.020,40.527,0
1539629241.024,17.090,28.320,30.762,17.090,15.625,0
1539629241.028,18.555,31.738,33.203,23.926,50.293,0
1539629241.032,26.855,27.344,29.297,34.668,90.820,0
1539629241.035,21.973,25.391,22.949,25.879,44.922,0
1539629241.039,23.438,30.273,25.879,23.438,47.852,0
1539629241.043,26.855,23.438,33.203,23.926,61.035,0
1539629241.047,39.062,27.832,30.762,20.996,-3.418,0
1539629241.051,39.062,37.598,24.414,23.926,26.367,0
1539629241.055,27.832,38.574,24.902,21.484,59.570,0
1539629241.059,32.227,40.527,24.902,22.949,-20.020,0
1539629241.063,20.020,38.574,25.879,32.227,-8.789,0
1539629241.067,17.090,31.250,30.762,23.438,51.758,0
1539629241.071,17.090,28.320,35.645,19.043,30.273,0
1539629241.074,20.020,26.855,33.203,23.438,36.133,0
1539629241.078,36.621,32.227,25.391,24.414,20.508,0
1539629241.082,52.734,40.527,28.809,35.156,35.645,0
1539629241.086,31.738,34.180,31.250,26.367,30.273,0
1539629241.090,0.000,24.902,26.855,4.883,6.836,0
1539629241.094,5.859,26.855,27.344,17.578,3.906,0
1539629241.098,19.531,33.691,28.809,21.484,-5.859,0
1539629241.102,22.949,31.250,29.785,12.207,47.852,0
1539629241.106,18.066,27.832,25.879,5.371,41.016,0
1539629241.110,16.602,30.273,21.484,-4.395,8.301,0
1539629241.114,21.973,32.715,25.879,6.348,30.762,0
1539629241.117,14.648,31.250,29.297,20.020,47.852,0
1539629241.121,15.625,21.973,28.809,20.020,16.113,0
1539629241.125,25.391,24.414,28.320,20.996,1.953,0
1539629241.129,25.879,34.180,22.949,21.973,30.762,0
1539629241.133,16.113,35.156,19.043,19.531,78.613,0
1539629241.137,13.672,34.180,23.438,18.555,67.383,0
1539629241.141,19.043,33.203,31.250,18.555,5.859,0
1539629241.145,26.367,32.227,32.715,18.066,16.113,0
1539629241.149,26.855,33.203,27.832,17.578,30.762,0
1539629241.153,32.715,28.809,27.832,19.531,53.223,0
1539629241.157,22.949,29.785,28.320,20.996,76.660,0
1539629241.160,11.719,31.250,30.273,24.902,52.246,0
1539629241.164,17.578,33.203,30.273,24.902,37.109,0
1539629241.168,18.555,35.156,27.344,19.043,46.875,0
1539629241.172,27.344,31.250,23.926,20.020,34.180,0
1539629241.176,36.621,32.227,27.832,24.414,52.734,0
1539629241.180,35.156,37.109,35.156,29.297,49.805,0
1539629241.184,23.926,37.109,37.109,36.621,41.992,0
1539629241.188,18.066,29.785,37.109,28.320,57.617,0
1539629241.192,36.133,31.250,30.273,13.672,35.645,0
1539629241.196,34.180,32.715,27.832,22.949,23.438,0
1539629241.199,21.484,28.809,28.809,21.973,-20.996,0
1539629241.203,18.066,29.297,27.344,12.695,37.109,0
1539629241.207,25.391,32.715,26.367,16.113,105.957,0
1539629241.211,28.320,27.344,21.973,15.625,35.645,0
1539629241.215,8.789,27.344,24.414,17.090,28.320,0
1539629241.219,11.230,29.785,24.414,23.926,44.434,0
1539629241.223,29.785,31.250,23.926,28.320,14.648,0
1539629241.227,37.109,38.574,26.855,20.996,61.035,0
1539629241.231,39.062,36.133,30.762,16.113,69.824,0
1539629241.235,30.273,32.227,31.250,22.949,38.574,0
1539629241.239,19.531,31.250,24.414,29.297,20.508,0
1539629241.242,33.691,33.691,23.438,35.645,58.105,0
1539629241.246,30.273,32.715,27.344,35.645,59.570,0
1539629241.250,31.738,32.227,25.391,28.809,29.297,0
1539629241.254,31.250,39.062,27.832,26.855,47.852,0
1539629241.258,21.973,40.527,31.738,28.809,57.129,0
1539629241.262,23.926,36.133,31.250,30.762,34.180,0
1539629241.266,30.762,37.109,28.320,33.691,-31.250,0
1539629241.270,26.855,35.645,26.855,27.832,-3.906,0
1539629241.274,18.555,37.109,31.738,22.461,35.156,0
1539629241.278,25.879,44.434,28.320,12.695,-1.953,0
1539629241.282,26.855,40.039,21.484,14.648,13.672,0
1539629241.285,23.438,36.133,26.367,19.043,26.855,0
1539629241.289,25.391,36.621,30.762,20.508,-1.953,0
1539629241.293,29.785,31.738,30.273,26.367,-25.879,0
1539629241.297,24.414,32.227,31.250,24.902,-52.734,0
1539629241.301,20.508,35.156,28.809,23.438,-14.648,0
1539629241.305,26.367,35.156,25.879,23.926,46.387,0
1539629241.309,30.762,36.621,24.414,33.691,43.457,0
1539629241.313,35.156,36.621,25.391,40.527,38.086,0
1539629241.317,31.738,30.273,30.273,41.504,45.898,0
1539629241.321,20.508,28.809,25.391,26.367,28.809,0
1539629241.324,24.902,33.691,25.879,19.043,19.043,0
1539629241.328,30.273,34.180,34.180,35.645,44.434,0
1539629241.332,27.344,34.668,34.668,41.504,17.578,0
1539629241.336,32.715,37.109,36.621,37.109,27.344,0
1539629241.340,33.691,40.527,39.551,35.645,37.598,0
1539629241.344,39.062,37.109,40.527,31.738,28.320,0
1539629241.348,26.855,30.273,34.180,25.879,41.016,0
1539629241.352,21.973,31.250,25.391,27.344,14.160,0
1539629241.356,35.156,35.156,31.250,27.344,35.156,0
1539629241.360,31.738,39.062,34.668,22.461,72.754,0
1539629241.364,32.227,37.598,26.367,19.043,37.598,0
1539629241.367,33.691,35.156,21.484,12.207,-2.441,0
1539629241.371,34.180,36.621,22.461,21.973,28.320,0
1539629241.375,29.785,37.598,23.926,27.832,21.484,0
1539629241.379,36.621,32.715,30.273,25.879,-4.883,0
1539629241.383,38.086,33.203,26.367,28.809,31.738,0
1539629241.387,29.297,38.086,22.949,29.785,66.895,0
1539629241.391,31.250,40.039,31.738,31.250,23.926,0
1539629241.395,30.762,44.434,31.250,34.668,5.859,0
1539629241.399,31.738,42.969,31.738,29.297,-10.742,0
1539629241.403,23.438,35.156,32.227,24.902,-14.160,0
1539629241.407,30.762,33.203,26.855,29.297,10.742,0
1539629241.410,32.715,33.203,26.367,38.086,21.973,0
1539629241.414,32.227,34.180,25.391,36.621,32.227,0
1539629241.418,41.016,30.762,25.879,35.156,20.020,0
1539629241.422,28.809,27.344,24.902,38.086,1.465,0
1539629241.426,23.926,27.344,24.414,36.621,54.199,0
1539629241.430,32.227,31.250,29.785,38.574,69.824,0
1539629241.434,47.363,34.180,33.691,37.109,63.965,0
1539629241.438,34.668,32.227,31.250,31.738,35.645,0
1539629241.442,21.973,35.645,32.227,35.645,18.066,0
1539629241.446,31.738,39.551,31.250,34.668,22.461,0
1539629241.449,28.320,33.691,26.855,36.133,-5.859,0
1539629241.453,19.531,34.180,23.438,35.156,8.789,0
1539629241.457,16.113,35.645,20.020,22.949,4.395,0
1539629241.461,20.508,28.809,20.508,20.020,17.578,0
1539629241.465,30.273,24.902,24.902,24.902,17.090,0
1539629241.469,22.461,31.250,29.785,19.531,-26.367,0
1539629241.473,21.484,35.156,33.203,11.230,-27.344,0
1539629241.477,24.902,32.715,32.715,10.742,43.945,0
1539629241.481,16.602,35.156,26.855,20.020,46.387,0
1539629241.485,25.879,34.180,30.762,27.344,-2.930,0
1539629241.489,28.320,27.344,35.156,20.996,39.551,0
1539629241.492,24.902,25.391,31.250,27.832,10.742,0
1539629241.496,27.344,34.180,30.762,31.738,12.207,0
1539629241.500,25.391,39.062,31.738,26.855,20.508,0
1539629241.504,18.555,36.133,29.785,24.902,21.973,0
1539629241.508,13.672,32.715,35.156,21.484,79.590,0
1539629241.512,18.066,32.227,39.062,15.625,57.129,0
1539629241.516,18.066,36.621,37.109,14.648,22.949,0
1539629241.520,20.996,32.227,36.133,20.996,48.340,0
1539629241.524,20.020,27.344,31.250,19.531,60.059,0
1539629241.528,31.738,27.344,30.762,27.344,33.203,0
1539629241.532,48.340,32.715,35.645,37.598,11.719,0
1539629241.535,31.738,37.109,35.156,32.227,21.484,0
1539629241.539,30.762,30.273,26.855,22.461,72.754,0
1539629241.543,34.180,28.809,28.320,19.043,75.684,0
1539629241.547,26.855,35.645,36.133,19.043,3.906,0
1539629241.551,26.367,41.992,36.621,24.414,-16.602,0
1539629241.555,20.508,30.762,37.598,27.832,-6.348,0
1539629241.559,16.602,24.902,35.156,24.414,-7.812,0
1539629241.563,25.879,35.645,35.156,21.484,-36.621,0
1539629241.567,44.922,37.598,30.273,25.879,-26.855,0
1539629241.571,46.875,32.715,25.391,27.832,20.020,0
1539629241.574,22.949,32.227,24.902,20.020,41.016,0
1539629241.578,25.391,40.039,27.344,22.949,21.973,0
1539629241.582,44.922,46.387,32.715,28.809,65.430,0
1539629241.586,38.574,46.387,41.992,34.668,62.012,0
1539629241.590,36.621,43.457,43.457,41.504,39.062,0
1539629241.594,47.852,36.133,40.039,31.250,71.777,0
1539629241.598,46.875,25.391,36.621,31.738,62.500,0
1539629241.602,39.551,29.297,33.203,39.062,40.039,0
1539629241.606,35.645,36.621,30.273,33.203,99.609,0
1539629241.610,40.039,36.133,22.949,23.438,84.473,0
1539629241.614,36.133,40.039,21.973,15.137,4.395,0
1539629241.617,30.762,43.945,26.855,11.719,51.758,0
1539629241.621,33.203,35.156,23.926,20.996,68.848,0
1539629241.625,34.180,33.203,13.672,27.344,51.758,0
1539629241.629,22.949,34.668,12.695,26.367,36.133,0
1539629241.633,25.391,37.598,19.531,24.902,10.254,0
1539629241.637,24.414,37.598,21.484,24.902,64.941,0
1539629241.641,17.578,34.180,20.020,21.973,62.012,0
1539629241.645,27.832,34.668,21.484,15.137,21.973,0
1539629241.649,40.039,31.250,26.855,24.414,54.688,0
1539629241.653,40.039,24.414,28.809,27.344,58.105,0
1539629241.657,22.461,21.484,25.879,26.367,-1.465,0
1539629241.660,17.090,27.344,25.391,30.762,58.105,0
1539629241.664,23.438,31.250,24.902,26.855,77.637,0
1539629241.668,29.785,35.645,21.484,30.273,-1.953,0
1539629241.672,28.320,36.621,18.555,24.414,27.832,0
1539629241.676,37.109,29.785,20.508,23.438,28.809,0
1539629241.680,45.410,31.250,24.902,32.227,77.148,0
1539629241.684,32.715,30.762,27.344,31.738,70.801,0
1539629241.688,26.367,27.344,20.508,25.391,34.668,0
1539629241.692,21.973,33.691,21.484,21.484,0.488,0
1539629241.696,18.066,35.156,27.832,20.996,16.602,0
1539629241.699,20.020,29.297,27.344,16.602,53.711,0
1539629241.703,31.250,27.832,33.691,26.855,1.465,0
1539629241.707,37.109,34.180,32.715,29.785,18.066,0
1539629241.711,31.250,37.598,23.438,18.555,16.113,0
1539629241.715,30.273,39.551,22.949,21.973,2.441,0
1539629241.719,29.785,44.434,26.367,21.973,30.762,0
1539629241.723,27.344,44.434,28.320,18.555,3.906,0
1539629241.727,27.344,38.086,28.320,21.484,-5.371,0
1539629241.731,38.086,32.715,24.902,20.508,-22.949,0
1539629241.735,39.551,30.273,24.902,24.414,23.926,0
1539629241.739,25.391,32.227,30.273,20.996,60.059,0
1539629241.742,27.832,33.203,32.715,22.461,49.316,0
1539629241.746,27.832,39.062,26.855,24.902,52.246,0
1539629241.750,23.438,35.645,18.066,23.926,51.270,0
1539629241.754,27.344,29.297,15.625,20.020,45.410,0
1539629241.758,34.668,31.738,26.367,21.484,-20.020,0
1539629241.762,36.621,27.344,30.273,36.133,8.789,0
1539629241.766,30.273,23.926,26.367,39.551,82.031,0
1539629241.770,23.438,27.344,30.762,18.555,48.828,0
1539629241.774,26.855,36.621,29.785,23.926,-46.875,0
1539629241.778,23.926,40.039,31.738,37.109,-14.160,0
1539629241.782,23.926,32.227,31.738,21.484,84.961,0
1539629241.785,30.273,26.855,29.297,11.230,34.180,0
1539629241.789,29.297,26.367,30.762,13.672,-70.801,0
1539629241.793,32.227,29.297,29.297,22.949,-26.367,0
1539629241.797,31.250,28.809,28.809,25.391,16.602,0
1539629241.801,32.715,32.227,31.738,32.715,27.344,0
1539629241.805,39.551,39.062,35.645,26.855,52.734,0
1539629241.809,36.133,38.574,31.250,16.113,87.402,0
1539629241.813,33.203,36.133,28.809,21.973,66.406,0
1539629241.817,33.203,34.180,26.855,22.461,32.715,0
1539629241.821,29.297,32.227,22.949,19.531,76.660,0
1539629241.824,41.992,33.691,28.809,31.250,81.543,0
1539629241.828,39.551,31.250,27.832,29.297,47.852,0
1539629241.832,21.973,31.250,26.855,20.996,50.781,0
1539629241.836,21.484,32.715,28.320,26.367,23.926,0
1539629241.840,25.879,36.133,28.320,24.902,15.137,0
1539629241.844,31.738,40.039,32.227,22.949,29.297,0
1539629241.848,29.297,38.574,29.297,21.973,20.508,0
1539629241.852,31.738,36.133,31.250,29.785,49.316,0
1539629241.856,36.621,21.973,31.250,32.227,61.523,0
1539629241.860,32.715,27.344,21.973,24.902,39.062,0
1539629241.864,30.762,35.156,20.508,23.438,78.125,0
1539629241.867,23.438,25.879,21.484,20.508,98.145,0
1539629241.871,24.902,28.809,27.832,30.273,36.133,0
1539629241.875,14.648,27.832,30.273,34.668,39.551,0
1539629241.879,9.766,25.879,25.879,27.344,47.363,0
1539629241.883,27.344,31.250,24.414,16.602,7.324,0
1539629241.887,24.414,33.203,27.344,16.113,20.508,0
1539629241.891,24.414,35.156,25.391,29.297,44.434,0
1539629241.895,32.227,32.715,22.461,24.902,77.148,0
1539629241.899,34.180,26.855,25.391,28.320,80.566,0
1539629241.903,33.203,25.879,20.996,19.043,62.012,0
1539629241.907,30.273,29.785,19.531,15.137,68.359,0
1539629241.910,32.227,30.273,18.066,22.949,91.309,0
1539629241.914,28.809,30.273,22.461,18.555,72.754,0
1539629241.918,25.391,39.551,34.668,27.344,44.922,0
1539629241.922,31.738,44.922,33.203,25.879,53.223,0
1539629241.926,34.180,36.621,28.809,26.367,52.246,0
1539629241.930,29.297,29.297,24.414,25.391,-44.922,0
1539629241.934,31.738,33.691,24.414,25.879,-7.324,0
1539629241.938,25.391,34.180,26.367,29.785,40.527,0
1539629241.942,29.297,26.855,24.414,33.203,29.785,0
1539629241.946,30.762,29.785,22.949,38.574,57.129,0
1539629241.949,24.902,35.156,23.926,28.809,31.250,0
1539629241.953,20.020,31.738,23.438,20.996,-28.809,0
1539629241.957,22.949,32.715,24.414,29.785,-36.621,0
1539629241.961,26.855,32.227,27.344,30.273,76.660,0
1539629241.965,27.344,28.320,29.297,22.461,72.754,0
1539629241.969,22.949,25.879,29.785,22.949,-8.301,0
1539629241.973,9.277,28.809,24.902,22.461,77.148,0
1539629241.977,16.602,35.156,28.320,15.137,70.801,0
1539629241.981,22.461,32.715,28.809,16.602,33.691,0
1539629241.985,11.230,31.250,21.973,25.391,58.594,0
1539629241.989,24.414,37.109,18.555,20.996,68.359,0
1539629241.992,25.879,32.227,19.531,20.996,68.848,0
1539629241.996,14.648,28.809,24.414,20.508,40.527,0
1539629242.000,28.809,31.250,27.344,15.625,-17.090,0
1539629242.004,18.555,21.973,26.855,18.555,38.086,0
1539629242.008,14.648,21.484,25.879,27.344,93.262,0
1539629242.012,19.531,32.227,29.785,29.297,49.805,0
1539629242.016,10.254,33.203,34.180,23.438,1.953,0
1539629242.020,13.672,33.203,26.367,25.391,43.945,0
1539629242.024,27.344,32.715,19.531,31.250,98.145,0
1539629242.028,23.438,29.297,21.484,31.250,35.156,0
1539629242.032,21.973,27.832,25.391,22.949,27.344,0
1539629242.035,26.367,25.879,30.273,22.461,59.082,0
1539629242.039,10.742,28.809,29.297,17.090,26.855,0
1539629242.043,16.113,36.133,28.809,25.879,12.695,0
1539629242.047,30.273,36.133,29.785,35.156,39.062,0
1539629242.051,14.648,34.180,31.738,27.832,20.508,0
1539629242.055,4.883,30.762,27.344,28.809,52.734,0
1539629242.059,4.883,26.855,20.020,29.785,100.098,0
1539629242.063,16.113,28.320,22.949,25.391,49.316,0
1539629242.067,15.137,26.367,26.855,20.996,-9.766,0
1539629242.071,7.812,30.273,26.367,22.461,29.297,0
1539629242.074,13.184,34.180,26.367,21.484,59.082,0
1539629242.078,16.602,33.691,28.320,25.879,14.648,0
1539629242.082,24.902,33.203,35.645,33.691,-60.059,0
1539629242.086,36.133,30.762,35.156,32.715,-53.711,0
1539629242.090,21.484,26.855,25.879,21.973,9.766,0
1539629242.094,12.695,25.879,27.832,19.043,-10.742,0
1539629242.098,20.996,28.320,29.297,20.996,-74.707,0
1539629242.102,23.438,28.809,30.762,20.020,-11.230,0
1539629242.106,21.973,37.109,30.273,29.785,72.266,0
1539629242.110,20.020,40.527,31.738,35.156,40.039,0
1539629242.114,29.785,38.086,29.297,30.762,43.945,0
1539629242.117,30.273,30.273,21.484,26.367,84.961,0
1539629242.121,26.367,21.484,23.438,19.043,48.340,0
1539629242.125,17.090,29.785,32.715,21.484,60.547,0
1539629242.129,16.113,39.062,35.645,25.391,71.289,0
1539629242.133,19.043,35.645,27.344,23.438,20.020,0
1539629242.137,31.250,32.715,23.438,22.461,17.090,0
1539629242.141,36.133,28.320,27.344,18.555,6.836,0
1539629242.145,10.254,31.250,27.344,15.137,-8.789,0
1539629242.149,3.906,36.133,27.832,22.949,0.977,0
1539629242.153,15.137,30.273,32.227,26.367,33.203,0
1539629242.157,24.902,31.250,26.855,21.973,17.578,0
1539629242.160,21.973,33.203,22.949,17.090,-26.367,0
1539629242.164,16.113,30.762,28.320,14.648,4.883,0
1539629242.168,13.672,20.508,23.926,19.043,42.969,0
1539629242.172,20.020,16.113,24.902,14.648,27.344,0
1539629242.176,27.344,21.973,28.809,11.230,-11.230,0
1539629242.180,20.996,24.414,25.879,13.672,17.090,0
1539629242.184,26.367,29.785,24.414,16.602,80.078,0
1539629242.188,29.785,36.621,20.996,20.020,92.285,0
1539629242.192,30.762,35.156,20.020,22.949,76.172,0
1539629242.196,31.738,30.762,18.555,17.090,63.965,0
1539629242.199,32.227,30.273,17.090,17.090,35.645,0
1539629242.203,40.039,32.715,20.508,20.020,25.391,0
1539629242.207,31.738,29.297,24.414,20.508,59.082,0
1539629242.211,20.996,31.250,27.344,20.508,2.930,0
1539629242.215,27.344,31.738,24.414,22.461,0.000,0
1539629242.219,23.926,28.320,20.020,23.926,38.574,0
1539629242.223,21.484,29.785,18.066,18.066,-20.020,0
1539629242.227,38.574,29.297,14.160,23.438,-11.230,0
1539629242.231,30.273,33.691,4.395,21.484,9.277,1
1539629242.235,32.227,39.551,7.324,17.090,1.465,0
1539629242.239,32.715,39.551,17.578,22.949,7.812,0
1539629242.242,17.578,32.227,18.555,18.555,38.086,0
1539629242.246,23.926,30.273,20.020,12.207,41.992,0
1539629242.250,20.020,26.367,21.484,11.719,30.762,0
1539629242.254,17.090,28.320,17.090,12.695,40.527,0
1539629242.258,24.414,33.691,20.508,22.461,36.133,0
1539629242.262,23.438,29.785,21.973,21.484,17.578,0
1539629242.266,26.855,33.691,19.043,19.043,32.227,0
1539629242.270,31.250,36.621,28.320,19.531,46.387,0
1539629242.274,23.438,35.156,26.855,16.113,34.180,0
1539629242.278,26.367,28.809,22.949,16.602,2.441,0
1539629242.282,24.902,19.043,28.809,25.391,9.766,0
1539629242.285,12.695,23.438,28.320,24.414,52.734,0
1539629242.289,9.277,32.715,28.320,21.484,44.922,0
1539629242.293,17.578,26.367,32.227,22.949,19.043,0
1539629242.297,29.297,29.785,37.109,18.555,-16.113,0
1539629242.301,32.227,36.621,28.320,26.367,59.570,0
1539629242.305,28.320,26.367,21.484,37.109,71.777,0
1539629242.309,36.133,27.344,28.809,28.809,16.602,0
1539629242.313,39.062,33.691,30.273,23.926,29.297,0
1539629242.317,35.645,27.832,29.785,22.949,11.230,0
1539629242.321,38.086,27.832,26.855,27.832,24.414,0
1539629242.324,29.297,32.715,27.344,38.086,58.594,0
1539629242.328,23.926,30.273,31.250,30.273,54.199,0
1539629242.332,25.391,30.762,32.227,29.785,-2.441,0
1539629242.336,20.020,29.297,34.668,25.391,-24.414,0
1539629242.340,22.949,23.926,31.250,13.672,0.488,0
1539629242.344,25.391,28.809,30.273,14.648,-36.133,0
1539629242.348,32.227,38.086,35.645,20.508,-6.836,0
1539629242.352,29.785,37.109,36.621,22.949,48.828,0
1539629242.356,21.973,26.855,36.621,20.996,92.285,0
1539629242.360,29.297,26.367,37.109,36.133,72.266,0
1539629242.364,34.180,33.203,36.621,40.039,18.066,0
1539629242.367,25.879,34.180,28.809,31.250,33.691,0
1539629242.371,20.020,31.738,23.438,27.344,-6.348,0
1539629242.375,16.113,25.879,24.414,25.879,-12.695,0
1539629242.379,14.648,27.344,30.273,30.762,42.480,0
1539629242.383,13.672,32.227,35.156,22.949,69.824,0
1539629242.387,30.273,33.691,34.668,23.438,35.645,0
1539629242.391,39.062,36.133,32.227,30.762,-6.836,0
1539629242.395,27.344,35.156,29.785,27.344,5.371,0
1539629242.399,18.555,32.715,30.762,24.902,31.250,0
1539629242.403,20.020,30.762,27.832,19.043,21.973,0
1539629242.407,34.180,33.203,20.020,16.602,17.578,0
1539629242.410,25.879,34.180,21.484,23.438,-6.348,0
1539629242.414,22.461,26.855,27.344,31.250,23.438,0
1539629242.418,22.949,28.809,26.367,26.855,67.871,0
1539629242.422,16.602,28.809,24.902,19.043,54.688,0
1539629242.426,20.020,28.320,25.391,23.438,47.363,0
1539629242.430,23.438,29.297,26.367,19.531,22.949,0
1539629242.434,25.391,27.344,30.762,20.020,46.875,0
1539629242.438,22.949,26.855,25.879,23.438,23.926,0
1539629242.442,23.438,29.297,26.367,25.879,44.922,0
1539629242.446,20.508,32.227,31.250,26.367,29.297,0
1539629242.449,24.902,26.367,32.227,22.949,14.160,0
1539629242.453,37.598,24.902,37.598,25.879,45.410,0
1539629242.457,35.645,28.809,35.156,25.391,36.133,0
1539629242.461,23.438,37.598,32.715,24.414,30.762,0
1539629242.465,28.320,31.250,37.598,21.484,13.672,0
1539629242.469,18.555,27.344,31.250,23.438,10.742,0
1539629242.473,8.789,33.691,23.926,25.879,-4.395,0
1539629242.477,19.043,34.668,25.391,21.484,18.066,0
1539629242.481,24.902,34.668,25.879,24.902,38.086,0
1539629242.485,32.715,31.738,29.785,26.367,39.062,0
1539629242.489,31.738,37.598,34.668,22.949,84.473,0
1539629242.492,9.277,43.945,30.762,22.949,58.105,0
1539629242.496,14.160,39.551,29.297,23.926,43.945,0
1539629242.500,23.438,29.297,29.785,32.715,46.875,0
1539629242.504,24.414,28.320,27.344,28.809,76.660,0
1539629242.508,28.320,35.156,23.926,22.461,91.309,0
1539629242.512,31.738,32.715,23.926,25.391,47.852,0
1539629242.516,26.855,22.949,28.809,18.555,30.762,0
1539629242.520,10.254,26.855,30.762,11.230,56.152,0
1539629242.524,15.137,39.551,26.855,18.555,82.031,0
1539629242.528,16.113,34.180,24.414,21.484,76.172,0
1539629242.532,2.930,25.879,28.320,10.742,112.305,0
1539629242.535,14.160,28.320,31.738,13.184,73.730,0
1539629242.539,24.902,29.785,30.273,17.090,21.973,0
1539629242.543,16.602,27.344,27.344,18.555,55.664,0
1539629242.547,22.949,35.645,29.785,29.785,29.785,0
1539629242.551,31.738,37.109,37.598,31.250,-2.930,0
1539629242.555,14.160,31.250,35.645,20.020,57.617,0
1539629242.559,13.672,32.227,26.855,19.043,94.238,0
1539629242.563,31.738,30.273,25.391,19.043,12.695,0
1539629242.567,34.180,26.367,30.273,19.043,-23.926,0
1539629242.571,30.273,22.461,32.715,24.414,28.320,0
1539629242.574,29.297,28.320,32.227,34.668,63.477,0
1539629242.578,25.391,33.203,31.738,32.227,68.848,0
1539629242.582,20.508,34.180,34.180,17.578,49.316,0
1539629242.586,25.879,33.691,32.227,17.090,18.555,0
1539629242.590,29.785,34.668,27.832,23.438,34.668,0
1539629242.594,19.043,30.762,30.762,20.508,62.012,0
1539629242.598,23.926,28.320,27.832,20.020,9.766,0
1539629242.602,36.621,34.180,31.738,26.855,-16.113,0
1539629242.606,30.273,31.738,31.250,26.855,1.465,0
1539629242.610,25.391,32.227,24.902,28.809,40.527,0
1539629242.614,29.297,31.738,28.809,33.203,31.738,0
1539629242.617,28.320,32.715,29.785,26.367,8.789,0
1539629242.621,33.691,33.691,29.785,20.508,12.695,0
1539629242.625,34.668,30.273,33.691,21.484,26.855,0
1539629242.629,28.320,35.156,33.691,18.066,81.055,0
1539629242.633,23.438,36.621,30.762,20.020,70.801,0
1539629242.637,27.344,31.250,28.320,20.508,102.539,0
1539629242.641,36.621,26.367,31.738,23.438,82.031,0
1539629242.645,31.250,31.250,28.809,25.391,45.898,0
1539629242.649,29.785,28.320,23.926,19.043,63.477,0
1539629242.653,25.391,27.832,20.508,25.391,62.988,0
1539629242.657,20.020,36.621,18.066,25.879,57.129,0
1539629242.660,24.414,26.855,21.484,24.414,-11.719,0
1539629242.664,26.367,21.484,24.902,24.414,7.812,0
1539629242.668,25.879,36.133,22.461,30.273,60.547,0
1539629242.672,39.551,36.133,20.020,35.645,51.270,0
1539629242.676,46.875,22.461,23.438,21.973,61.035,0
1539629242.680,36.133,24.414,27.832,19.531,50.781,0
1539629242.684,31.250,34.668,30.273,29.297,37.109,0
1539629242.688,24.414,32.715,26.367,33.203,51.270,0
1539629242.692,22.949,26.855,20.508,32.715,6.836,0
1539629242.696,23.926,23.438,24.414,37.598,3.418,0
1539629242.699,34.180,22.461,29.297,38.086,17.090,0
1539629242.703,35.645,22.949,27.344,35.156,14.160,0
1539629242.707,23.926,21.484,25.391,41.504,65.918,0
1539629242.711,25.879,22.949,26.855,33.691,42.480,0
1539629242.715,18.555,21.973,28.320,22.461,55.664,0
1539629242.719,24.902,26.855,29.785,28.320,73.242,0
1539629242.723,31.738,25.879,22.949,22.949,-7.324,0
1539629242.727,25.391,19.531,23.438,23.438,51.758,0
1539629242.731,19.043,19.043,31.250,25.879,54.199,0
1539629242.735,21.484,19.043,36.621,21.484,0.488,0
1539629242.739,22.949,21.484,37.598,23.926,-5.859,0
1539629242.742,17.578,27.832,36.621,25.879,-4.395,0
1539629242.746,9.277,28.809,37.598,22.461,19.531,0
1539629242.750,18.555,23.926,35.156,22.461,29.297,0
1539629242.754,25.879,27.344,35.156,24.414,-12.207,0
1539629242.758,18.066,28.320,34.180,20.996,29.785,0
1539629242.762,18.066,19.043,29.785,14.648,67.871,0
1539629242.766,19.531,22.949,32.227,16.113,44.922,0
1539629242.770,24.414,28.809,38.086,24.902,25.391,0
1539629242.774,26.855,26.855,39.551,20.996,73.730,0
1539629242.778,19.531,35.156,38.086,29.297,73.242,0
1539629242.782,29.785,39.551,36.133,38.086,-19.043,0
1539629242.785,37.598,33.691,36.133,27.344,42.969,0
1539629242.789,22.461,34.180,38.086,24.414,76.660,0
1539629242.793,32.227,40.527,40.039,29.785,36.133,0
1539629242.797,36.133,36.133,38.086,29.297,64.941,0
1539629242.801,24.902,28.320,34.668,22.949,36.621,0
1539629242.805,34.180,38.086,33.691,19.531,-13.184,0
1539629242.809,26.855,44.434,33.691,20.508,0.977,0
1539629242.813,31.738,41.504,36.621,30.273,1.465,0
1539629242.817,46.875,41.504,28.809,39.551,19.531,0
1539629242.821,35.156,35.645,22.461,28.320,17.090,0
1539629242.824,28.809,30.273,29.785,25.879,36.621,0
1539629242.828,32.715,34.180,33.691,33.691,66.406,0
1539629242.832,29.785,37.598,40.527,37.598,24.902,0
1539629242.836,35.156,37.109,38.086,30.273,-3.906,0
1539629242.840,35.156,38.574,28.809,29.297,5.371,0
1539629242.844,47.852,41.504,31.738,41.504,55.176,0
1539629242.848,59.570,40.527,34.668,42.969,102.539,0
1539629242.852,38.574,36.133,37.598,33.691,98.633,0
1539629242.856,26.367,38.086,39.551,24.414,33.691,0
1539629242.860,36.621,36.133,36.621,31.250,5.859,0
1539629242.864,41.992,36.133,38.086,33.203,11.230,0
1539629242.867,25.391,36.621,41.504,30.762,6.836,0
1539629242.871,20.508,33.691,35.645,33.203,-20.020,0
1539629242.875,26.367,27.344,27.344,30.273,-10.742,0
1539629242.879,29.785,28.809,24.414,26.367,34.668,0
1539629242.883,40.527,27.832,25.391,29.297,66.895,0
1539629242.887,32.227,16.602,27.832,32.227,79.102,0
1539629242.891,23.438,21.973,29.785,25.391,61.523,0
1539629242.895,23.438,24.902,30.762,14.648,30.273,0
1539629242.899,27.832,24.902,32.227,17.090,5.371,0
1539629242.903,22.461,24.414,33.203,27.344,0.000,0
1539629242.907,17.578,22.461,31.250,35.156,27.344,0
1539629242.910,16.602,30.273,32.227,40.039,53.711,0
1539629242.914,26.855,32.715,25.391,40.039,76.660,0
1539629242.918,40.527,29.297,21.973,35.645,53.711,0
1539629242.922,34.668,34.668,27.832,31.738,24.902,0
1539629242.926,21.484,28.320,31.738,23.926,53.223,0
1539629242.930,27.344,20.996,31.250,15.625,11.230,0
1539629242.934,35.156,31.738,30.762,16.602,-45.410,0
1539629242.938,28.809,31.738,32.715,25.391,-75.684,0
1539629242.942,21.973,23.438,27.344,26.855,-22.949,0
1539629242.946,16.113,27.344,23.438,23.926,5.371,0
1539629242.949,20.996,28.320,22.461,26.855,-29.297,0
1539629242.953,25.391,31.250,26.855,21.484,41.992,0
1539629242.957,35.645,40.527,30.273,20.508,41.504,0
1539629242.961,32.227,36.621,27.344,28.809,5.859,0
1539629242.965,27.344,29.785,22.461,20.508,28.320,0
1539629242.969,25.879,30.273,27.832,18.555,52.734,0
1539629242.973,30.273,29.297,30.762,27.832,42.480,0
1539629242.977,30.273,34.180,27.832,31.738,24.414,0
1539629242.981,26.367,36.133,26.855,25.879,19.043,0
1539629242.985,31.250,33.691,27.832,20.508,27.344,0
1539629242.989,31.250,41.992,33.203,26.855,61.035,0
1539629242.992,38.086,40.039,33.203,41.504,61.523,0
1539629242.996,42.480,29.297,23.926,37.598,39.551,0
1539629243.000,41.016,30.273,24.414,20.996,13.672,0
1539629243.004,43.945,25.879,32.227,25.391,15.137,0
1539629243.008,31.738,24.414,28.809,25.879,26.367,0
1539629243.012,20.996,34.668,25.879,19.531,47.852,0
1539629243.016,23.926,37.109,29.785,21.973,61.035,0
1539629243.020,27.832,34.668,29.785,18.066,51.270,0
1539629243.024,31.250,29.297,25.391,13.184,24.902,0
1539629243.028,21.484,22.949,27.344,13.184,68.359,0
1539629243.032,20.996,31.250,31.738,16.113,62.012,0
1539629243.035,35.645,36.621,32.227,20.508,9.277,0
1539629243.039,38.086,36.621,35.645,20.508,-7.812,0
1539629243.043,17.578,37.109,41.504,21.484,0.000,0
1539629243.047,13.184,36.621,38.574,20.020,38.574,0
1539629243.051,21.484,37.109,33.691,24.414,29.297,0
1539629243.055,28.809,31.738,36.133,32.715,26.367,0
1539629243.059,33.203,27.832,36.133,22.461,52.246,0
1539629243.063,32.715,27.344,30.273,19.043,61.035,0
1539629243.067,34.180,28.320,28.320,26.855,67.871,0
1539629243.071,29.297,32.227,25.879,30.762,21.973,0
1539629243.074,29.297,34.668,26.855,30.762,26.367,0
1539629243.078,36.621,32.227,32.227,29.785,102.051,0
1539629243.082,33.203,34.668,33.691,23.926,88.379,0
1539629243.086,22.949,37.109,33.691,22.461,39.062,0
1539629243.090,33.203,31.250,30.762,18.066,7.812,0
1539629243.094,38.574,30.762,28.809,16.602,32.715,0
1539629243.098,17.090,31.250,31.250,18.066,76.660,0
1539629243.102,4.395,30.273,36.133,13.184,68.359,0
1539629243.106,6.836,29.297,37.109,14.160,61.035,0
1539629243.110,9.277,30.273,32.715,12.695,85.449,0
1539629243.114,21.484,27.832,29.785,14.160,47.363,0
1539629243.117,29.785,25.391,36.621,21.484,59.570,0
1539629243.121,23.926,23.438,38.574,16.602,66.895,0
1539629243.125,19.043,23.438,30.273,21.484,35.156,0
1539629243.129,30.762,25.879,29.785,24.902,24.414,0
1539629243.133,25.879,27.832,30.273,17.090,-30.273,0
1539629243.137,3.418,29.297,29.785,15.625,-37.598,0
1539629243.141,17.090,30.273,34.180,35.156,-8.301,0
1539629243.145,32.227,24.902,32.715,38.086,0.977,0
1539629243.149,32.227,23.926,26.367,28.809,17.578,0
1539629243.153,30.273,26.855,30.273,39.551,-20.996,0
1539629243.157,28.809,26.855,29.297,30.762,-23.438,0
1539629243.160,27.832,33.203,27.832,20.020,-11.230,0
1539629243.164,28.809,33.691,31.738,24.902,2.930,0
1539629243.168,30.762,28.320,28.809,26.855,48.340,0
1539629243.172,27.344,29.297,25.391,26.367,38.086,0
1539629243.176,30.762,30.762,21.973,27.344,40.039,0
1539629243.180,33.691,27.344,25.391,27.344,53.711,0
1539629243.184,29.297,27.832,27.832,26.855,102.051,0
1539629243.188,28.320,29.297,26.367,25.879,97.656,0
1539629243.192,24.414,33.691,25.391,24.902,-3.418,0
1539629243.196,25.391,33.691,27.832,20.020,21.484,0
1539629243.199,32.227,31.250,34.180,22.461,83.496,0
1539629243.203,35.645,31.738,35.645,30.273,61.523,0
1539629243.207,30.273,26.855,34.180,40.039,81.543,0
1539629243.211,23.926,25.879,27.832,37.598,91.797,0
1539629243.215,29.785,29.297,32.227,27.344,29.297,0
1539629243.219,29.297,28.809,30.762,20.020,26.367,0
1539629243.223,22.461,24.414,21.973,18.066,45.410,0
1539629243.227,29.785,22.461,26.855,21.973,-0.977,0
1539629243.231,30.762,31.738,29.297,35.645,19.531,0
1539629243.235,36.133,35.645,31.250,39.551,47.852,0
1539629243.239,23.926,36.621,32.227,26.855,49.805,0
1539629243.242,16.602,36.621,29.785,26.855,63.965,0
1539629243.246,34.668,30.762,27.344,33.691,51.758,0
1539629243.250,26.855,30.762,31.738,23.926,72.754,0
1539629243.254,19.043,34.180,30.762,15.625,49.805,0
1539629243.258,28.320,24.414,21.973,16.113,-14.648,0
1539629243.262,21.484,20.020,21.973,24.414,-31.738,0
1539629243.266,11.230,30.762,26.855,28.809,-14.648,0
1539629243.270,16.602,38.086,37.109,34.668,62.500,0
1539629243.274,20.508,34.180,37.598,39.062,129.395,0
1539629243.278,18.066,29.785,34.668,31.738,116.699,0
1539629243.282,20.508,34.668,38.086,25.391,30.762,0
1539629243.285,24.902,37.598,39.551,25.391,40.039,0
1539629243.289,27.344,33.203,40.527,25.391,61.035,0
1539629243.293,30.762,32.227,32.715,21.973,-10.254,0
1539629243.297,20.020,30.762,29.297,18.066,3.418,0
1539629243.301,11.719,27.832,32.715,22.461,23.438,0
1539629243.305,13.672,25.391,27.832,22.461,10.254,0
1539629243.309,18.555,30.273,29.297,26.367,6.836,0
1539629243.313,29.297,37.598,33.203,33.203,44.434,0
1539629243.317,34.180,33.691,32.227,37.598,68.848,0
1539629243.321,26.367,28.809,32.227,44.434,13.184,0
1539629243.324,25.879,32.715,29.297,48.340,7.812,0
1539629243.328,32.227,43.457,30.273,48.340,29.297,0
1539629243.332,37.109,41.992,28.809,33.203,72.266,0
1539629243.336,39.062,35.156,26.367,31.250,96.191,0
1539629243.340,34.180,37.109,34.180,35.156,49.316,0
1539629243.344,36.621,38.574,37.598,36.133,7.812,0
1539629243.348,39.062,34.668,34.180,51.270,3.418,0
1539629243.352,41.016,31.250,36.621,43.945,9.766,0
1539629243.356,43.945,36.621,33.203,32.715,33.203,0
1539629243.360,30.273,42.480,26.367,30.273,47.363,0
1539629243.364,35.156,42.480,25.391,19.531,23.926,0
1539629243.367,39.551,44.434,32.227,21.973,6.348,0
1539629243.371,36.621,41.016,35.156,28.320,68.359,0
1539629243.375,33.691,30.762,35.645,33.691,61.523,0
1539629243.379,24.414,36.133,36.621,35.645,0.000,0
1539629243.383,36.133,39.062,34.180,29.297,0.977,0
1539629243.387,42.480,36.621,32.715,33.691,-7.324,0
1539629243.391,36.621,37.109,31.250,29.785,22.461,0
1539629243.395,27.344,36.133,26.855,21.973,35.645,0
1539629243.399,40.039,34.180,24.414,23.926,48.828,0
1539629243.403,39.551,40.039,22.949,28.320,14.648,0
1539629243.407,25.879,36.621,24.414,35.156,-38.086,0
1539629243.410,22.949,30.273,32.227,41.016,40.527,0
1539629243.414,24.902,37.109,35.156,34.668,24.414,0
1539629243.418,29.785,37.109,34.668,27.832,-10.254,0
1539629243.422,27.344,31.738,32.227,29.297,17.090,0
1539629243.426,35.645,35.645,27.344,26.855,1.465,0
1539629243.430,46.387,40.527,25.879,21.973,-20.020,0
1539629243.434,29.785,31.250,23.438,20.508,14.648,0
1539629243.438,17.578,27.832,22.949,28.320,60.059,0
1539629243.442,29.297,35.156,26.367,32.227,16.113,0
1539629243.446,32.227,33.691,33.203,22.461,-25.391,0
1539629243.449,28.320,30.762,37.598,13.672,-41.992,0
1539629243.453,26.367,30.762,34.180,19.531,-12.207,0
1539629243.457,17.090,29.785,31.250,28.320,22.461,0
1539629243.461,14.160,31.250,29.297,25.391,27.344,0
1539629243.465,12.695,28.809,32.227,21.484,56.641,0
1539629243.469,15.625,25.391,33.203,23.438,31.250,0
1539629243.473,21.484,36.621,29.297,28.809,16.602,0
1539629243.477,28.809,41.504,31.738,31.738,50.293,0
1539629243.481,48.340,39.551,36.133,27.344,22.461,0
1539629243.485,37.109,43.457,32.715,34.180,0.000,0
1539629243.489,22.949,36.621,26.367,35.156,-30.762,0
1539629243.492,20.508,28.320,28.809,24.902,22.461,0
1539629243.496,18.066,27.832,28.809,21.484,46.387,0
1539629243.500,24.902,30.273,25.391,17.090,9.277,0
1539629243.504,29.297,35.156,30.762,23.438,-11.230,0
1539629243.508,24.902,32.715,38.086,27.832,-5.859,0
1539629243.512,26.855,30.273,31.738,23.926,-6.836,0
1539629243.516,27.832,37.598,27.832,32.715,-8.301,0
1539629243.520,21.973,36.621,30.273,32.227,31.738,0
1539629243.524,26.855,28.809,31.250,20.508,26.367,0
1539629243.528,34.180,25.391,32.227,21.973,37.598,0
1539629243.532,31.250,35.156,32.715,25.391,35.156,1
1539629243.535,21.973,44.434,31.250,25.391,-29.297,0
1539629243.539,24.414,37.109,32.227,20.020,8.789,0
1539629243.543,25.879,33.203,35.156,21.484,94.238,0
1539629243.547,28.809,34.180,35.645,29.785,47.363,0
1539629243.551,33.203,31.738,36.621,24.414,36.621,0
1539629243.555,42.969,27.344,39.551,22.461,89.844,0
1539629243.559,31.250,26.855,38.086,32.227,45.410,0
1539629243.563,24.902,34.180,35.645,32.227,52.246,0
1539629243.567,41.992,37.109,31.738,26.855,80.078,0
1539629243.571,32.227,31.738,28.809,23.438,48.340,0
1539629243.574,26.367,28.320,32.715,16.113,43.945,0
1539629243.578,27.832,34.180,37.598,27.344,75.684,0
1539629243.582,31.738,39.551,38.574,30.273,104.004,0
1539629243.586,33.203,30.762,37.109,20.996,111.816,0
1539629243.590,23.926,26.855,35.156,15.137,100.098,0
1539629243.594,26.367,28.809,30.762,17.578,101.562,0
1539629243.598,28.320,26.367,28.320,23.438,72.754,0
1539629243.602,29.297,28.320,23.438,18.555,31.738,0
1539629243.606,26.855,33.203,24.414,27.344,49.316,0
1539629243.610,32.715,34.668,32.227,36.621,45.410,0
1539629243.614,34.180,38.086,32.715,23.926,12.695,0
1539629243.617,23.926,38.086,30.762,19.531,41.504,0
1539629243.621,27.344,28.809,36.133,29.785,64.453,0
1539629243.625,23.926,19.043,32.715,26.855,86.914,0
1539629243.629,26.855,27.344,27.344,23.438,14.648,0
1539629243.633,30.273,34.180,26.367,20.996,9.277,0
1539629243.637,31.250,34.668,26.855,22.949,80.566,0
1539629243.641,41.992,37.598,29.785,24.902,95.703,0
1539629243.645,38.574,38.086,31.738,26.855,90.820,0
1539629243.649,28.809,40.039,30.273,36.621,32.227,0
1539629243.653,25.879,34.668,31.738,29.297,-9.766,0
1539629243.657,28.809,23.438,34.668,21.973,8.301,0
1539629243.660,27.344,24.902,28.809,20.996,23.438,0
1539629243.664,30.273,31.250,28.809,27.344,23.926,0
1539629243.668,31.738,33.691,26.367,27.344,53.223,0
1539629243.672,26.367,29.785,20.508,17.578,40.039,0
1539629243.676,30.762,35.156,25.391,16.113,-9.766,0
1539629243.680,31.738,43.945,26.855,17.578,-46.875,0
1539629243.684,19.531,39.062,25.391,20.020,0.488,0
1539629243.688,20.996,34.668,27.832,34.180,54.688,0
1539629243.692,21.484,36.133,31.738,35.645,54.688,0
1539629243.696,17.090,33.691,32.715,26.855,57.129,0
1539629243.699,23.438,35.156,30.273,23.926,90.332,0
1539629243.703,25.391,38.574,24.414,20.020,21.484,0
1539629243.707,17.578,39.062,23.926,23.438,-6.348,0
1539629243.711,24.414,30.273,27.832,26.855,79.590,0
1539629243.715,28.809,17.578,26.855,29.297,63.477,0
1539629243.719,20.508,20.996,26.855,18.066,31.738,0
1539629243.723,19.043,41.016,30.762,14.648,39.551,0
1539629243.727,21.973,44.922,31.738,20.996,32.715,0
1539629243.731,21.973,36.621,27.344,25.391,73.730,0
1539629243.735,25.391,33.203,24.902,27.832,58.594,0
1539629243.739,31.738,34.668,22.949,18.555,2.441,0
1539629243.742,38.086,37.598,22.461,15.625,14.160,0
1539629243.746,33.691,25.879,26.367,25.879,22.461,0
1539629243.750,22.461,22.461,28.809,23.438,16.113,0
1539629243.754,22.949,29.785,34.668,23.926,45.898,0
1539629243.758,32.227,36.133,40.039,29.297,41.016,0
1539629243.762,36.133,40.039,37.598,30.762,-47.363,0
1539629243.766,30.273,29.297,34.668,27.832,-23.926,0
1539629243.770,34.180,24.902,32.715,22.949,23.926,0
1539629243.774,36.621,31.250,30.273,23.926,15.625,0
1539629243.778,32.715,36.621,29.297,19.531,46.875,0
1539629243.782,22.461,42.969,25.879,18.555,35.645,0
1539629243.785,17.578,38.086,25.879,22.949,40.527,0
1539629243.789,22.461,30.762,35.645,20.020,80.078,0
1539629243.793,21.484,34.180,38.086,21.973,44.434,0
1539629243.797,26.367,37.598,35.156,18.555,21.484,0
1539629243.801,28.320,31.250,34.668,21.484,-6.836,0
1539629243.805,30.273,29.297,33.691,27.344,-24.902,0
1539629243.809,30.762,30.762,36.621,27.832,-2.930,0
1539629243.813,36.621,34.668,36.133,31.250,-9.277,0
1539629243.817,39.551,42.480,32.227,28.809,-5.371,0
1539629243.821,27.344,45.410,36.133,33.691,19.531,0
1539629243.824,20.996,42.480,36.133,37.598,58.105,0
1539629243.828,24.414,39.551,33.691,38.574,81.055,0
1539629243.832,24.414,33.203,35.156,39.062,63.477,0
1539629243.836,25.879,31.738,32.715,34.668,-4.883,0
1539629243.840,30.762,36.133,28.809,37.598,11.230,0
1539629243.844,36.621,38.574,29.297,34.668,52.246,0
1539629243.848,39.551,40.039,39.062,26.855,53.223,0
1539629243.852,29.785,41.992,40.039,26.855,40.039,0
1539629243.856,29.785,36.621,39.062,34.668,-18.066,0
1539629243.860,29.785,31.738,39.062,33.203,10.742,0
1539629243.864,17.578,37.598,27.344,24.902,78.613,0
1539629243.867,22.949,38.086,20.996,19.531,23.926,0
1539629243.871,23.926,38.086,20.508,23.926,6.348,0
1539629243.875,25.879,37.598,24.414,30.762,52.246,0
1539629243.879,32.715,28.320,29.785,18.555,65.430,0
1539629243.883,27.832,28.809,30.273,20.996,52.734,0
1539629243.887,25.879,32.715,28.809,30.273,16.602,0
1539629243.891,12.207,37.598,26.855,19.043,19.531,0
1539629243.895,12.695,43.945,30.762,15.625,2.930,0
1539629243.899,32.715,37.598,32.227,18.555,18.066,0
1539629243.903,33.203,31.250,24.414,20.996,87.891,0
1539629243.907,26.367,36.133,20.996,25.879,57.129,0
1539629243.910,30.762,41.504,28.320,29.785,2.441,0
1539629243.914,36.621,36.133,34.180,33.691,11.230,0
1539629243.918,34.668,31.250,31.250,34.668,11.719,0
1539629243.922,24.902,33.691,32.715,33.691,33.691,0
1539629243.926,27.344,29.785,31.738,21.484,106.934,0
1539629243.930,35.645,24.414,27.344,12.207,22.949,0
1539629243.934,31.738,29.297,27.832,23.438,10.254,0
1539629243.938,18.555,34.668,26.367,27.832,42.480,0
1539629243.942,10.254,29.785,25.391,29.297,-0.488,0
1539629243.946,20.508,24.902,23.926,33.691,-20.996,0
1539629243.949,33.691,23.438,27.344,29.297,39.551,0
1539629243.953,33.691,22.949,30.762,22.461,74.707,0
1539629243.957,20.508,29.785,29.297,21.973,27.832,0
1539629243.961,20.020,30.273,26.855,23.926,15.625,0
1539629243.965,24.414,21.484,25.391,21.484,3.906,0
1539629243.969,20.996,24.414,28.809,32.227,41.016,0
1539629243.973,38.574,32.227,25.879,31.250,49.805,0
1539629243.977,40.527,34.668,28.809,35.156,40.039,0
1539629243.981,30.273,35.156,37.109,44.922,34.180,0
1539629243.985,30.273,35.156,29.297,37.109,-6.836,0
1539629243.989,28.320,31.738,27.832,30.273,52.246,0
1539629243.992,36.133,27.832,29.297,35.156,62.012,0
1539629243.996,29.785,30.762,24.902,35.156,20.020,0
1539629244.000,31.738,36.621,20.996,30.762,88.867,0
1539629244.004,32.227,42.969,24.414,36.133,69.336,0
1539629244.008,24.902,37.109,36.133,26.855,66.895,0
1539629244.012,26.367,32.227,33.203,20.508,88.379,0
1539629244.016,27.344,36.133,27.344,26.367,92.773,0
1539629244.020,30.273,33.203,28.320,22.949,84.473,0
1539629244.024,22.949,35.156,26.367,17.090,68.359,0
1539629244.028,15.137,41.016,26.367,26.367,18.066,0
1539629244.032,19.043,35.156,19.043,24.902,26.855,0
1539629244.035,25.879,35.645,17.090,5.859,-1.465,0
1539629244.039,30.762,42.969,24.902,9.277,-13.184,0
1539629244.043,26.367,39.062,30.762,17.090,57.129,0
1539629244.047,10.742,32.715,31.738,14.648,46.387,0
1539629244.051,21.484,33.203,32.715,14.648,21.973,0
1539629244.055,35.156,26.855,34.180,16.602,41.016,0
1539629244.059,26.367,18.555,29.785,18.555,11.719,0
1539629244.063,26.367,34.180,29.785,16.602,-20.996,0
1539629244.067,24.414,40.527,32.227,19.043,-0.488,0
1539629244.071,30.762,33.203,23.438,23.926,26.367,0
1539629244.074,27.344,37.109,20.508,16.113,48.340,0
1539629244.078,19.531,37.598,29.297,11.230,43.457,0
1539629244.082,32.227,36.621,32.227,16.113,-21.973,0
1539629244.086,30.762,34.668,29.785,15.137,22.949,0
1539629244.090,14.160,28.320,28.320,11.719,52.246,0
1539629244.094,14.648,21.973,32.227,14.160,0.488,0
1539629244.098,20.996,26.367,39.062,19.043,0.977,0
1539629244.102,30.273,34.668,33.691,21.484,-5.859,0
1539629244.106,38.086,33.691,23.926,22.461,-27.832,0
1539629244.110,33.203,28.320,29.297,28.809,-10.742,0
1539629244.114,26.367,25.879,36.621,27.832,6.836,0
1539629244.117,36.621,26.367,36.133,27.832,-18.555,0
1539629244.121,26.855,27.344,35.156,44.922,4.395,0
1539629244.125,20.508,24.902,32.715,45.898,50.781,0
1539629244.129,36.621,23.438,30.762,27.832,100.098,0
1539629244.133,26.367,24.902,34.180,20.996,113.770,0
1539629244.137,23.438,24.902,32.227,25.391,44.434,0
1539629244.141,31.250,17.090,21.484,25.879,-0.977,0
1539629244.145,37.109,14.648,26.855,26.855,19.531,0
1539629244.149,30.762,28.809,30.762,25.879,75.195,0
1539629244.153,20.996,36.133,27.832,33.691,89.355,0
1539629244.157,20.020,26.855,31.250,35.645,107.422,0
1539629244.160,11.230,20.996,35.645,31.250,107.422,0
1539629244.164,6.348,21.484,35.645,27.344,70.312,0
1539629244.168,17.578,20.996,32.715,28.809,34.668,0
1539629244.172,23.926,23.926,26.855,30.762,41.016,0
1539629244.176,26.855,24.902,27.344,28.809,64.941,0
1539629244.180,29.297,23.926,31.250,28.320,45.898,0
1539629244.184,22.949,27.344,27.344,27.832,54.199,0
1539629244.188,23.926,29.785,34.180,26.855,71.289,0
1539629244.192,20.508,27.832,35.645,28.809,17.090,0
1539629244.196,22.949,23.926,25.879,27.344,48.828,0
1539629244.199,24.414,22.461,26.855,28.809,49.805,0
1539629244.203,24.414,24.414,27.832,30.273,-18.555,0
1539629244.207,33.691,27.344,30.273,34.668,-5.859,0
1539629244.211,30.762,26.855,31.738,41.016,3.906,0
1539629244.215,38.574,23.438,27.832,32.715,-1.953,0
1539629244.219,46.875,26.367,27.344,27.832,2.930,0
1539629244.223,26.855,37.109,30.273,36.621,48.828,0
1539629244.227,21.484,30.762,31.250,29.785,42.969,0
1539629244.231,21.484,20.508,32.715,15.625,-6.348,0
1539629244.235,24.414,24.414,31.250,15.625,-15.137,0
1539629244.239,31.738,28.809,24.902,24.414,-0.977,0
1539629244.242,23.926,34.180,22.461,22.461,62.988,0
1539629244.246,13.184,40.527,20.508,18.555,99.609,0
1539629244.250,18.555,41.504,22.949,24.414,33.203,0
1539629244.254,26.855,37.598,29.785,22.461,2.930,0
1539629244.258,30.762,32.715,32.715,23.926,32.715,0
1539629244.262,31.738,29.297,32.715,33.203,34.180,0
1539629244.266,32.227,28.809,28.320,39.062,2.930,0
1539629244.270,25.879,31.738,31.250,42.480,15.137,0
1539629244.274,29.297,34.180,27.344,46.387,71.289,0
1539629244.278,36.621,32.227,21.973,37.109,74.707,0
1539629244.282,37.598,33.691,28.809,33.203,43.457,0
1539629244.285,41.016,33.203,29.785,34.180,43.945,0
1539629244.289,38.574,38.086,34.180,34.668,53.711,0
1539629244.293,32.227,39.551,37.598,28.809,42.480,0
1539629244.297,30.273,41.016,31.250,14.648,82.031,0
1539629244.301,28.320,44.922,28.320,16.113,33.203,0
1539629244.305,29.297,38.574,32.227,22.461,1.465,0
1539629244.309,34.180,36.133,29.785,22.461,20.020,0
1539629244.313,28.809,32.227,22.949,25.391,-35.156,0
1539629244.317,21.973,35.156,21.484,24.902,14.160,0
1539629244.321,25.879,38.086,18.555,21.973,91.309,0
1539629244.324,38.086,34.668,22.949,31.250,14.648,0
1539629244.328,48.340,41.992,35.645,35.156,-20.508,0
1539629244.332,30.762,34.180,35.645,34.180,53.711,0
1539629244.336,18.066,21.484,30.762,28.809,93.262,0
1539629244.340,20.020,35.645,32.227,19.531,74.219,0
1539629244.344,16.113,37.598,27.344,18.066,52.246,0
1539629244.348,29.785,27.832,22.949,25.879,55.176,0
1539629244.352,35.156,32.227,24.414,23.926,55.664,0
1539629244.356,20.508,35.645,24.902,21.973,21.973,0
1539629244.360,19.531,37.598,25.879,24.414,18.066,0
1539629244.364,22.461,35.156,28.320,21.973,12.695,0
1539629244.367,18.555,36.133,34.180,17.090,8.789,0
1539629244.371,19.531,36.133,35.645,22.461,-12.695,0
1539629244.375,23.926,33.203,32.227,28.809,2.930,0
1539629244.379,24.902,32.715,29.297,23.926,22.949,0
1539629244.383,22.461,33.691,24.902,18.555,-46.387,0
1539629244.387,18.555,33.203,23.438,15.137,-57.617,0
1539629244.391,10.742,29.785,27.344,13.672,-29.297,0
1539629244.395,17.578,30.273,26.855,18.066,6.348,0
1539629244.399,28.320,30.762,18.066,21.484,138.672,0
1539629244.403,21.973,33.691,18.555,14.648,126.953,0
1539629244.407,24.414,32.715,30.273,17.090,56.152,0
1539629244.410,18.555,25.879,30.273,22.949,46.875,0
1539629244.414,8.789,28.809,24.902,13.184,26.367,0
1539629244.418,16.113,40.527,26.367,6.348,34.668,0
1539629244.422,18.066,39.551,23.926,11.230,24.902,0
1539629244.426,12.207,28.809,19.531,20.508,19.043,0
1539629244.430,16.602,22.949,21.484,20.508,83.496,0
1539629244.434,16.113,31.738,23.438,13.672,76.660,0
1539629244.438,19.531,38.574,20.508,15.625,-1.465,0
1539629244.442,35.156,37.109,20.508,20.508,-11.230,0
1539629244.446,28.320,37.598,25.391,14.648,32.227,0
1539629244.449,20.996,37.598,26.855,20.508,29.297,0
1539629244.453,20.020,32.715,29.297,25.391,49.316,0
1539629244.457,22.949,32.227,29.297,25.879,65.918,0
1539629244.461,34.180,36.621,28.809,33.203,-45.898,0
1539629244.465,43.457,34.668,28.809,28.809,-40.527,0
1539629244.469,42.480,33.203,26.367,24.414,27.832,0
1539629244.473,30.762,29.297,23.926,24.414,55.176,0
1539629244.477,27.344,27.344,25.879,26.855,86.914,0
1539629244.481,30.273,36.621,29.785,27.832,20.508,0
1539629244.485,29.785,37.109,30.762,25.391,22.949,0
1539629244.489,31.738,32.227,30.273,29.785,51.758,0
1539629244.492,32.715,31.250,28.320,32.715,44.922,0
1539629244.496,30.273,28.809,24.414,39.551,56.641,0
1539629244.500,27.832,27.832,23.438,33.691,34.180,0
1539629244.504,23.438,28.320,21.973,20.020,33.691,0
1539629244.508,21.484,31.738,20.996,22.949,-24.902,0
1539629244.512,24.902,27.344,24.414,22.949,-15.137,0
1539629244.516,14.648,26.855,17.578,20.508,69.824,0
1539629244.520,15.625,36.133,19.531,26.367,29.785,0
1539629244.524,25.391,30.273,29.297,32.715,36.133,0
1539629244.528,29.297,25.391,23.926,24.414,54.199,0
1539629244.532,28.809,29.785,22.949,14.648,59.570,0
1539629244.535,18.066,34.180,27.344,12.207,76.172,0
1539629244.539,18.555,32.715,24.414,14.160,12.695,0
1539629244.543,21.484,29.785,23.438,30.762,28.320,0
1539629244.547,16.113,29.785,24.902,19.043,83.496,0
1539629244.551,18.066,26.367,27.832,8.301,14.648,0
1539629244.555,33.691,26.367,27.832,20.508,-33.203,0
1539629244.559,26.855,24.902,15.625,21.973,-24.414,0
1539629244.563,13.672,25.879,12.695,10.742,-10.742,0
1539629244.567,20.508,26.367,25.879,10.254,46.387,0
1539629244.571,19.043,24.902,29.297,17.090,32.715,0
1539629244.574,21.973,25.391,21.973,17.578,6.836,0
1539629244.578,29.785,29.297,24.902,21.973,34.668,0
