timestamps,TP9,AF7,AF8,TP10,Right AUX,Marker0
1539629458.883,5.859,31.250,20.508,10.254,-44.922,1
1539629458.887,2.930,34.668,26.855,5.371,-17.578,0
1539629458.891,3.418,31.738,20.996,10.742,33.203,0
1539629458.895,0.977,39.062,16.113,9.766,40.527,0
1539629458.899,0.488,39.062,16.602,11.230,32.715,0
1539629458.903,9.766,31.738,12.695,16.113,25.391,0
1539629458.907,16.113,30.762,13.184,2.930,-17.578,0
1539629458.910,15.137,31.738,19.043,0.000,14.648,0
1539629458.914,13.184,29.297,24.414,11.230,46.387,0
1539629458.918,15.137,28.809,18.066,17.090,42.969,0
1539629458.922,20.996,23.438,20.020,15.625,31.250,0
1539629458.926,20.020,22.949,23.926,8.789,17.090,0
1539629458.930,29.297,32.227,18.555,7.324,-21.973,0
1539629458.934,31.738,37.598,15.137,10.742,-76.172,0
1539629458.938,14.648,44.922,15.625,15.625,15.137,0
1539629458.942,16.113,34.668,16.602,23.438,68.359,0
1539629458.946,20.996,22.949,22.461,28.320,83.984,0
1539629458.949,23.926,29.785,27.344,30.762,29.785,0
1539629458.953,28.320,31.250,22.949,27.344,-13.672,0
1539629458.957,32.227,24.902,23.926,26.367,12.695,0
1539629458.961,35.645,33.691,28.320,33.203,70.312,0
1539629458.965,34.668,30.762,20.996,33.203,77.637,0
1539629458.969,30.273,22.461,20.508,36.621,10.742,0
1539629458.973,21.973,28.809,27.344,29.785,33.203,0
1539629458.977,17.090,25.879,22.461,24.414,7.324,0
1539629458.981,33.691,27.832,20.996,30.762,39.551,0
1539629458.985,38.086,30.762,20.020,25.879,73.730,0
1539629458.989,35.156,31.250,22.949,29.785,-8.301,0
1539629458.992,27.832,34.668,29.785,26.367,-4.883,0
1539629458.996,16.602,35.156,33.203,22.461,41.016,0
1539629459.000,20.020,32.227,30.273,37.598,40.039,0
1539629459.004,31.738,21.484,25.879,42.969,58.594,0
1539629459.008,25.879,24.414,24.902,29.785,84.961,0
1539629459.012,25.391,33.203,20.996,28.809,87.402,0
1539629459.016,39.062,28.320,22.461,38.574,74.707,0
1539629459.020,25.879,23.438,31.250,45.898,65.918,0
1539629459.024,21.484,24.414,33.691,36.621,35.645,0
1539629459.028,32.715,28.320,27.832,24.902,9.277,0
1539629459.032,36.133,29.785,27.832,27.344,78.125,0
1539629459.035,27.344,32.227,29.785,25.391,120.117,0
1539629459.039,20.508,32.227,25.391,27.344,78.125,0
1539629459.043,22.461,25.879,23.438,27.832,64.453,0
1539629459.047,29.297,24.902,28.809,27.832,7.324,0
1539629459.051,22.949,26.855,30.273,32.227,24.902,0
1539629459.055,17.090,31.250,17.090,25.879,70.801,0
1539629459.059,19.043,31.738,10.742,25.879,41.016,0
1539629459.063,20.508,30.762,19.531,16.602,9.766,0
1539629459.067,20.020,32.715,30.762,12.695,51.270,0
1539629459.071,14.160,30.762,28.809,19.043,119.629,0
1539629459.074,11.719,29.297,25.391,12.695,64.941,0
1539629459.078,10.742,32.227,26.367,15.137,-13.672,0
1539629459.082,18.066,32.227,19.043,15.137,11.230,0
1539629459.086,18.066,25.879,16.602,13.184,17.578,0
1539629459.090,11.719,25.879,20.020,5.371,-24.414,0
1539629459.094,7.812,27.832,18.555,6.836,-40.527,0
1539629459.098,15.137,28.809,19.043,14.160,3.418,0
1539629459.102,21.973,28.809,16.602,13.184,55.664,0
1539629459.106,11.719,24.414,14.160,12.695,64.941,0
1539629459.110,0.488,31.738,22.461,8.301,63.477,0
1539629459.114,13.184,41.016,26.367,12.695,28.320,0
1539629459.117,15.625,23.926,24.414,9.277,37.109,0
1539629459.121,10.254,20.508,25.391,1.465,33.203,0
1539629459.125,18.555,31.250,25.879,9.766,-4.883,0
1539629459.129,25.391,28.320,25.391,17.578,-10.254,0
1539629459.133,20.020,29.297,26.855,10.254,6.836,0
1539629459.137,14.160,31.250,28.320,9.766,25.391,0
1539629459.141,14.160,34.180,25.879,8.789,53.711,0
1539629459.145,4.883,39.062,22.461,4.395,24.414,0
1539629459.149,5.859,39.062,26.855,9.277,-11.230,0
1539629459.153,14.160,43.457,30.273,7.324,14.160,0
1539629459.157,2.930,43.457,25.879,-0.977,31.250,0
1539629459.160,-8.301,34.668,27.344,-6.836,56.641,0
1539629459.164,-9.766,41.504,25.391,-18.555,17.090,0
1539629459.168,-11.719,51.758,22.949,-15.625,13.672,0
1539629459.172,-11.230,48.340,31.250,-17.578,42.969,0
1539629459.176,-25.879,36.133,27.344,-25.879,6.836,0
1539629459.180,-30.273,31.250,23.926,-24.414,10.254,0
1539629459.184,-10.254,37.598,32.227,-16.113,35.156,0
1539629459.188,-7.324,43.457,37.598,-6.836,30.762,0
1539629459.192,-18.066,41.504,28.320,-16.113,-8.789,0
1539629459.196,-15.625,43.457,32.227,-14.160,34.180,0
1539629459.199,13.672,47.363,39.551,-9.766,37.109,0
1539629459.203,21.973,37.109,25.879,-4.395,-15.625,0
1539629459.207,6.348,42.480,20.020,7.812,41.504,0
1539629459.211,10.254,44.922,21.973,16.113,44.922,0
1539629459.215,11.719,36.133,21.973,10.742,33.203,0
1539629459.219,22.461,40.039,22.461,3.418,42.969,0
1539629459.223,30.762,38.086,19.531,22.461,23.438,0
1539629459.227,30.273,31.738,17.578,36.621,63.965,0
1539629459.231,36.133,34.180,22.461,30.273,42.969,0
1539629459.235,39.062,34.668,22.461,17.090,-2.441,0
1539629459.239,48.828,36.133,20.508,20.020,6.836,0
1539629459.242,43.457,35.645,19.043,26.367,-32.715,0
1539629459.246,27.832,33.203,15.137,23.438,-26.367,0
1539629459.250,35.645,33.203,13.672,24.902,17.090,0
1539629459.254,34.180,30.273,15.137,24.414,79.590,0
1539629459.258,29.785,28.809,22.461,25.879,109.863,0
1539629459.262,32.227,27.832,25.391,33.203,65.430,0
1539629459.266,39.062,31.738,17.090,34.668,52.246,0
1539629459.270,44.922,28.809,20.996,34.668,90.820,0
1539629459.274,44.434,29.785,20.508,41.016,83.008,0
1539629459.278,45.410,39.062,18.066,40.527,-12.207,0
1539629459.282,46.875,25.391,21.973,31.738,-57.617,0
1539629459.285,39.551,22.949,19.531,36.133,10.254,0
1539629459.289,37.109,29.785,16.602,38.086,29.297,0
1539629459.293,41.016,30.273,20.508,37.598,30.762,0
1539629459.297,42.480,38.574,24.414,34.180,57.129,0
1539629459.301,50.781,39.551,24.414,39.062,46.387,0
1539629459.305,47.363,36.133,19.531,35.156,60.547,0
1539629459.309,38.574,41.504,18.066,31.738,49.805,0
1539629459.313,41.992,39.062,19.531,35.156,49.805,0
1539629459.317,43.457,27.832,25.391,33.203,31.250,0
1539629459.321,42.969,24.414,31.738,37.598,-27.344,0
1539629459.324,43.945,35.156,33.203,38.574,19.043,0
1539629459.328,45.410,36.133,22.461,39.062,103.027,0
1539629459.332,46.875,29.785,26.367,35.645,36.621,0
1539629459.336,37.109,28.809,25.879,38.086,4.395,0
1539629459.340,32.227,29.297,15.625,38.086,66.406,0
1539629459.344,49.316,33.691,24.902,31.738,80.078,0
1539629459.348,47.363,43.457,33.691,33.203,72.754,0
1539629459.352,37.598,39.551,32.227,34.180,96.680,0
1539629459.356,36.133,25.391,28.320,36.133,93.750,0
1539629459.360,33.203,30.762,26.367,29.297,68.848,0
1539629459.364,31.738,32.715,28.320,26.367,75.684,0
1539629459.367,36.133,25.879,26.367,33.691,64.453,0
1539629459.371,35.156,26.855,27.832,36.133,10.742,0
1539629459.375,22.461,25.391,31.738,34.180,-1.953,0
1539629459.379,29.785,22.949,22.949,38.086,38.086,0
1539629459.383,37.598,23.926,16.602,36.133,66.406,0
1539629459.387,30.762,29.297,28.320,40.039,9.766,0
1539629459.391,32.715,29.297,32.227,44.434,-16.113,0
1539629459.395,42.969,22.461,23.926,40.527,35.156,0
1539629459.399,31.250,27.832,20.020,36.133,55.176,0
1539629459.403,28.320,31.738,26.367,36.621,77.637,0
1539629459.407,37.109,37.598,31.738,35.156,96.191,0
1539629459.410,39.062,38.086,29.785,28.320,36.133,0
1539629459.414,43.457,27.344,29.297,37.598,-1.465,0
1539629459.418,41.504,24.414,27.832,45.898,23.926,0
1539629459.422,31.250,24.414,26.367,43.457,43.945,0
1539629459.426,22.461,21.484,23.926,37.109,53.711,0
1539629459.430,26.855,23.926,26.367,33.691,54.688,0
1539629459.434,34.668,35.645,31.738,36.621,2.441,0
1539629459.438,42.480,40.039,33.691,40.039,10.742,0
1539629459.442,42.969,35.156,28.809,40.039,47.852,0
1539629459.446,48.340,31.738,21.973,36.621,31.250,0
1539629459.449,47.363,31.250,22.949,38.574,7.324,0
1539629459.453,36.621,27.832,30.273,31.738,14.648,0
1539629459.457,22.461,27.344,31.250,23.926,68.848,0
1539629459.461,10.254,24.902,26.855,24.414,23.926,0
1539629459.465,11.230,22.949,29.785,20.996,-19.043,0
1539629459.469,-0.488,20.508,26.855,7.324,9.766,0
1539629459.473,2.441,21.484,23.926,5.371,4.395,0
1539629459.477,13.672,24.414,31.738,19.043,4.395,0
1539629459.481,22.949,33.691,35.645,26.855,3.906,0
1539629459.485,31.250,26.367,33.691,27.832,27.344,0
1539629459.489,25.879,5.859,29.785,26.855,57.617,0
1539629459.492,29.297,11.719,30.762,30.273,24.414,0
1539629459.496,26.367,20.020,26.367,22.461,-1.953,0
1539629459.500,22.949,19.043,26.855,19.043,-0.488,0
1539629459.504,22.461,20.996,26.855,26.367,-9.277,0
1539629459.508,21.973,22.949,21.973,23.926,51.270,0
1539629459.512,27.344,23.926,21.973,23.926,84.961,0
1539629459.516,36.621,24.902,25.391,29.785,17.578,0
1539629459.520,38.574,26.367,25.879,28.809,-19.531,0
1539629459.524,43.457,24.902,24.902,32.227,25.391,0
1539629459.528,40.527,20.996,25.391,38.574,16.602,0
1539629459.532,26.367,22.949,24.414,36.133,15.137,0
1539629459.535,25.391,23.438,26.367,28.809,-5.371,0
1539629459.539,24.902,20.020,26.855,27.832,-9.277,0
1539629459.543,24.902,22.461,21.973,33.203,30.762,0
1539629459.547,23.926,25.391,23.926,34.668,84.473,0
1539629459.551,27.832,32.227,20.996,25.879,78.125,0
1539629459.555,30.273,29.297,13.672,18.066,-0.488,0
1539629459.559,25.879,26.855,20.508,26.367,-10.742,0
1539629459.563,26.367,29.297,20.996,29.785,-0.488,0
1539629459.567,23.926,26.855,19.043,19.043,29.297,0
1539629459.571,31.250,24.902,20.996,25.391,45.410,0
1539629459.574,31.738,23.438,19.531,31.738,52.246,0
1539629459.578,15.625,28.320,21.484,29.785,35.645,0
1539629459.582,23.926,31.250,17.578,20.996,88.867,0
1539629459.586,27.344,31.738,15.137,21.973,62.988,0
1539629459.590,26.855,28.809,22.461,31.250,35.645,0
1539629459.594,29.785,29.297,19.043,30.762,87.891,0
1539629459.598,23.926,32.715,23.438,27.344,64.453,0
1539629459.602,21.484,26.367,24.902,19.531,50.293,0
1539629459.606,25.391,24.902,22.949,17.578,71.777,0
1539629459.610,40.039,24.414,23.438,29.785,33.691,0
1539629459.614,26.367,29.785,20.996,29.297,-23.438,0
1539629459.617,17.090,31.738,22.949,21.484,23.926,0
1539629459.621,27.832,23.438,21.484,12.695,40.039,0
1539629459.625,20.508,37.598,26.367,16.602,18.066,0
1539629459.629,20.508,40.039,23.926,32.227,49.316,0
1539629459.633,27.344,36.621,10.742,32.715,74.707,0
1539629459.637,25.391,39.551,19.531,23.926,12.695,0
1539629459.641,23.926,38.574,30.273,20.508,2.930,0
1539629459.645,36.133,32.715,30.762,17.578,36.621,0
1539629459.649,32.715,32.715,29.785,15.625,67.383,0
1539629459.653,20.020,36.133,30.273,15.625,78.613,0
1539629459.657,21.484,24.414,24.414,16.113,68.848,0
1539629459.660,15.137,23.438,22.949,14.160,65.430,0
1539629459.664,10.254,32.715,32.715,14.648,9.766,0
1539629459.668,21.973,32.227,30.273,16.113,33.203,0
1539629459.672,27.344,32.227,17.090,17.090,48.340,0
1539629459.676,13.672,32.715,12.207,5.859,11.230,0
1539629459.680,10.742,32.715,11.230,-3.906,8.789,0
1539629459.684,18.555,33.203,14.648,3.418,9.277,0
1539629459.688,20.020,29.297,23.438,3.418,8.789,0
1539629459.692,13.184,25.879,22.949,8.301,18.066,0
1539629459.696,10.254,29.297,23.926,13.672,28.809,0
1539629459.699,13.672,33.203,23.926,12.207,3.418,0
1539629459.703,14.160,27.832,21.484,15.625,6.348,0
1539629459.707,25.879,28.809,24.414,18.066,13.184,0
1539629459.711,29.785,28.320,18.555,14.160,23.438,0
1539629459.715,30.762,25.879,12.695,17.090,53.711,0
1539629459.719,38.086,31.250,18.555,19.043,35.645,0
1539629459.723,29.297,40.039,23.926,17.090,-3.418,0
1539629459.727,26.855,40.527,26.855,25.391,22.461,0
1539629459.731,33.691,36.133,22.461,31.250,96.191,0
1539629459.735,34.668,34.180,17.090,25.391,32.715,0
1539629459.739,31.738,34.180,21.484,25.391,47.852,0
1539629459.742,29.297,35.156,30.273,23.926,75.684,0
1539629459.746,25.391,32.227,26.367,22.949,12.695,0
1539629459.750,24.414,27.832,21.973,21.973,58.105,0
1539629459.754,24.902,29.785,20.996,21.484,73.242,0
1539629459.758,28.320,39.062,20.508,34.180,26.367,0
1539629459.762,35.645,41.016,22.949,37.109,38.086,0
1539629459.766,42.480,30.762,25.391,27.832,18.066,0
1539629459.770,45.410,28.320,27.344,24.902,-13.184,0
1539629459.774,31.738,33.691,25.879,26.855,-22.461,0
1539629459.778,29.297,29.785,29.297,29.785,-49.805,0
1539629459.782,29.785,25.879,32.715,25.391,10.742,0
1539629459.785,23.926,34.668,23.438,22.949,33.691,0
1539629459.789,23.926,35.156,20.508,16.602,-31.250,0
1539629459.793,23.438,36.133,24.902,14.160,0.977,0
1539629459.797,24.902,37.109,24.902,25.879,68.848,0
1539629459.801,24.414,24.902,24.414,25.879,32.715,0
1539629459.805,22.949,19.531,24.414,27.344,5.371,0
1539629459.809,26.367,30.762,23.926,42.969,81.055,0
1539629459.813,19.043,31.738,16.602,39.062,112.793,0
1539629459.817,12.695,24.414,20.020,29.785,38.086,0
1539629459.821,19.531,29.297,28.809,33.203,21.484,0
1539629459.824,21.973,30.273,24.902,34.668,48.828,0
1539629459.828,14.160,28.320,27.832,33.691,32.715,0
1539629459.832,16.113,29.785,27.832,30.273,36.621,0
1539629459.836,30.762,37.109,23.926,28.809,38.574,0
1539629459.840,37.109,32.715,27.344,35.156,19.531,0
1539629459.844,29.785,27.344,28.809,33.203,23.926,0
1539629459.848,36.621,29.297,27.832,30.762,42.969,0
1539629459.852,39.551,30.762,26.367,41.992,38.086,0
1539629459.856,29.297,30.762,20.020,43.457,35.156,0
1539629459.860,25.391,26.855,18.555,31.250,39.062,0
1539629459.864,24.902,31.250,23.926,24.902,45.898,0
1539629459.867,24.902,27.832,28.809,33.203,66.895,0
1539629459.871,24.414,25.391,30.273,31.250,79.102,0
1539629459.875,25.391,29.785,30.762,29.785,36.621,0
1539629459.879,36.133,30.273,32.715,31.738,29.297,0
1539629459.883,41.992,25.391,25.391,24.414,16.602,0
1539629459.887,36.621,22.461,23.926,27.832,12.207,0
1539629459.891,34.668,30.762,31.250,38.086,119.629,0
1539629459.895,26.855,31.250,27.832,34.180,83.496,0
1539629459.899,32.715,27.832,22.461,30.762,36.621,0
1539629459.903,39.551,27.344,26.367,37.109,51.270,0
1539629459.907,31.250,23.926,31.738,38.086,-22.461,0
1539629459.910,26.855,31.738,32.715,29.297,6.836,0
1539629459.914,25.391,35.156,31.738,24.902,44.922,0
1539629459.918,39.551,32.715,29.785,32.227,25.879,0
1539629459.922,50.293,39.551,27.344,32.227,-37.109,0
1539629459.926,37.109,39.551,22.949,31.250,-34.180,0
1539629459.930,28.320,30.273,24.902,43.457,95.215,0
1539629459.934,32.715,28.320,26.855,37.598,61.035,0
1539629459.938,30.762,31.738,20.996,20.020,-9.766,0
1539629459.942,24.902,34.668,20.508,28.809,53.711,0
1539629459.946,20.996,34.180,23.926,26.367,67.871,0
1539629459.949,18.555,37.598,16.113,10.742,52.734,0
1539629459.953,20.020,34.668,15.137,14.648,35.156,0
1539629459.957,26.855,35.645,23.926,18.555,20.020,0
1539629459.961,20.020,36.133,20.508,17.090,37.109,0
1539629459.965,8.789,31.738,17.578,11.230,54.688,0
1539629459.969,11.230,34.668,20.508,11.230,30.762,0
1539629459.973,5.859,37.109,19.043,6.836,53.711,0
1539629459.977,-2.441,37.109,19.043,-3.418,121.582,0
1539629459.981,0.488,42.480,23.926,-8.789,91.797,0
1539629459.985,-11.719,44.922,21.484,-17.090,33.691,0
1539629459.989,-22.461,44.922,18.555,-25.391,35.645,0
1539629459.992,-27.832,43.457,27.344,-31.738,53.223,0
1539629459.996,-41.992,43.457,40.527,-20.996,5.859,0
1539629460.000,-58.594,45.898,40.527,-35.156,14.160,0
1539629460.004,-77.148,49.316,34.668,-65.918,69.824,0
1539629460.008,-86.914,57.129,32.227,-73.242,77.637,0
1539629460.012,-77.148,54.199,36.133,-71.289,41.992,0
1539629460.016,-76.172,52.734,33.203,-71.289,3.906,0
1539629460.020,-86.426,52.734,34.668,-83.496,-11.230,0
1539629460.024,-94.727,46.387,39.062,-92.773,22.461,0
1539629460.028,-103.516,54.199,34.668,-104.980,92.773,0
1539629460.032,-95.215,57.129,30.762,-109.863,85.449,0
1539629460.035,-108.887,53.223,32.227,-113.770,25.391,0
1539629460.039,-124.512,50.293,36.133,-127.441,81.543,1
1539629460.043,-119.141,49.805,30.762,-128.906,104.980,0
1539629460.047,-109.375,58.594,31.250,-120.117,64.453,0
1539629460.051,-102.539,63.477,35.645,-117.188,44.922,0
1539629460.055,-111.328,54.199,34.668,-114.746,29.785,0
1539629460.059,-113.770,53.711,27.344,-108.887,-8.301,0
1539629460.063,-104.004,53.223,26.367,-105.469,6.836,0
1539629460.067,-108.398,45.410,29.297,-114.746,90.332,0
1539629460.071,-111.816,49.316,34.180,-109.863,71.777,0
1539629460.074,-97.168,51.270,35.645,-102.539,58.105,0
1539629460.078,-87.402,51.758,32.227,-105.469,44.434,0
1539629460.082,-85.449,53.711,25.391,-96.191,67.871,0
1539629460.086,-88.867,51.270,27.344,-92.773,20.996,0
1539629460.090,-91.309,39.062,30.273,-92.773,-40.527,0
1539629460.094,-88.867,41.504,28.809,-84.473,-42.969,0
1539629460.098,-84.961,49.805,22.949,-89.844,-38.574,0
1539629460.102,-73.730,48.828,16.602,-88.379,25.879,0
1539629460.106,-70.801,45.898,22.949,-77.637,15.625,0
1539629460.110,-54.199,42.480,29.785,-69.824,19.531,0
1539629460.114,-54.199,38.574,35.156,-62.988,29.785,0
1539629460.117,-65.918,38.574,31.738,-58.594,-9.277,0
1539629460.121,-53.223,37.598,21.973,-48.340,20.996,0
1539629460.125,-37.598,33.203,25.391,-35.645,37.109,0
1539629460.129,-18.066,35.645,32.227,-13.672,36.621,0
1539629460.133,4.883,32.715,30.273,7.812,56.641,0
1539629460.137,18.555,33.203,21.973,22.949,17.578,0
1539629460.141,24.414,33.203,20.020,36.621,59.082,0
1539629460.145,36.621,27.832,23.926,48.828,95.215,0
1539629460.149,61.035,21.973,21.484,60.547,36.621,0
1539629460.153,85.449,18.555,15.137,89.844,20.020,0
1539629460.157,95.215,21.484,11.230,106.445,-5.371,0
1539629460.160,93.750,23.926,15.137,113.281,38.086,0
1539629460.164,105.469,14.648,20.996,126.465,69.336,0
1539629460.168,116.211,12.207,22.949,139.160,7.812,0
1539629460.172,126.465,12.695,22.949,146.484,16.602,0
1539629460.176,138.672,4.883,21.484,150.879,24.414,0
1539629460.180,141.602,7.812,16.602,149.414,51.270,0
1539629460.184,149.414,15.625,14.648,153.320,76.660,0
1539629460.188,145.996,14.648,17.578,154.297,86.426,0
1539629460.192,140.625,10.742,19.531,146.484,78.613,0
1539629460.196,140.137,13.672,20.996,154.297,43.945,0
1539629460.199,133.789,14.648,19.531,156.250,23.926,0
1539629460.203,133.789,16.113,11.230,154.297,40.039,0
1539629460.207,144.531,17.578,11.719,155.762,41.992,0
1539629460.211,148.926,19.043,20.996,157.715,25.879,0
1539629460.215,135.254,17.578,24.414,154.297,58.594,0
1539629460.219,130.859,11.230,23.438,142.578,45.410,0
1539629460.223,129.395,15.137,20.508,129.395,-1.953,0
1539629460.227,123.535,27.344,25.391,125.000,-20.996,0
1539629460.231,111.816,22.461,21.973,127.441,4.395,0
1539629460.235,111.328,22.461,11.719,124.512,-26.367,0
1539629460.239,111.816,24.902,20.508,115.723,-49.805,0
1539629460.242,105.957,15.137,25.879,121.094,-3.906,0
1539629460.246,104.492,19.043,18.555,123.047,4.395,0
1539629460.250,109.375,36.133,11.719,112.793,24.414,0
1539629460.254,106.445,35.156,13.184,104.004,39.551,0
1539629460.258,97.168,22.949,21.973,97.168,32.715,0
1539629460.262,98.633,26.367,19.043,93.262,37.109,0
1539629460.266,79.590,22.461,18.066,82.031,65.918,0
1539629460.270,80.566,11.719,18.555,76.172,9.766,0
1539629460.274,80.566,18.555,15.625,77.148,25.391,0
1539629460.278,63.477,26.855,11.719,75.195,25.879,0
1539629460.282,64.941,30.273,15.137,74.219,33.203,0
1539629460.285,71.777,22.461,22.461,71.777,89.355,0
1539629460.289,72.754,11.719,12.207,66.895,43.457,0
1539629460.293,69.824,16.113,16.113,60.059,20.996,0
1539629460.297,64.453,22.949,23.438,61.523,28.320,0
1539629460.301,71.289,30.762,19.043,63.477,7.324,0
1539629460.305,68.359,33.691,22.949,59.570,14.648,0
1539629460.309,54.688,28.809,28.320,62.988,-8.789,0
1539629460.313,64.453,33.691,33.203,63.477,9.277,0
1539629460.317,74.219,33.203,31.738,59.570,30.273,0
1539629460.321,69.824,22.949,33.691,57.617,-28.809,0
1539629460.324,71.289,24.902,39.551,57.617,-39.551,0
1539629460.328,70.801,32.227,35.156,69.336,29.785,0
1539629460.332,71.289,28.809,41.504,72.754,26.855,0
1539629460.336,86.914,41.992,46.387,67.871,15.137,0
1539629460.340,72.266,47.363,35.156,67.383,22.949,0
1539629460.344,53.223,38.086,33.691,60.059,27.832,0
1539629460.348,60.059,34.668,37.598,60.059,80.078,0
1539629460.352,64.941,26.855,43.457,62.988,71.777,0
1539629460.356,58.105,30.762,45.898,65.430,48.828,0
1539629460.360,57.617,46.875,43.945,63.965,29.785,0
1539629460.364,70.312,51.758,45.898,61.035,4.395,0
1539629460.367,72.754,48.340,48.828,61.035,43.457,0
1539629460.371,63.965,55.664,47.363,58.105,56.641,0
1539629460.375,73.730,54.688,49.805,61.523,50.293,0
1539629460.379,75.195,49.805,51.270,71.777,61.035,0
1539629460.383,66.895,45.410,52.246,76.660,59.570,0
1539629460.387,66.895,47.363,53.711,66.895,32.715,0
1539629460.391,68.848,49.805,49.805,58.105,52.734,0
1539629460.395,76.660,43.945,51.270,60.059,47.363,0
1539629460.399,69.824,46.875,54.688,68.359,13.672,0
1539629460.403,64.941,52.734,51.270,64.453,34.668,0
1539629460.407,67.871,57.617,52.246,59.570,62.500,0
1539629460.410,70.312,53.223,52.246,68.359,67.871,0
1539629460.414,57.617,38.086,46.875,64.453,42.480,0
1539629460.418,52.734,32.227,52.246,51.758,32.715,0
1539629460.422,61.035,38.086,43.945,52.246,3.906,0
1539629460.426,54.199,31.250,33.691,47.363,41.992,0
1539629460.430,45.410,20.508,44.434,44.922,46.387,0
1539629460.434,40.527,17.578,38.574,40.527,27.832,0
1539629460.438,39.062,17.090,33.203,35.156,63.477,0
1539629460.442,46.387,23.926,32.715,38.574,25.391,0
1539629460.446,38.086,26.367,29.785,33.203,3.906,0
1539629460.449,29.785,24.902,33.203,33.691,45.898,0
1539629460.453,32.715,16.602,38.086,40.527,49.805,0
1539629460.457,32.715,10.742,31.738,33.691,12.207,0
1539629460.461,27.832,17.578,25.391,34.668,3.906,0
1539629460.465,31.250,19.043,27.344,36.621,-3.906,0
1539629460.469,36.133,16.602,23.926,34.180,-0.488,0
1539629460.473,30.762,18.555,15.137,26.367,22.461,0
1539629460.477,33.203,16.113,17.090,22.461,38.574,0
1539629460.481,29.785,14.160,22.949,27.832,9.766,0
1539629460.485,23.926,16.113,16.113,20.508,31.250,0
1539629460.489,31.250,15.137,20.508,25.391,35.156,0
1539629460.492,33.691,16.602,22.949,39.551,-18.555,0
1539629460.496,27.344,13.672,20.508,32.227,12.207,0
1539629460.500,29.297,11.719,24.902,39.062,30.762,0
1539629460.504,36.621,14.160,22.949,47.852,-32.715,0
1539629460.508,31.250,10.254,20.508,31.250,9.277,0
1539629460.512,19.531,12.207,27.832,23.438,60.547,0
1539629460.516,19.043,6.836,23.438,19.043,43.457,0
1539629460.520,26.367,-6.348,14.160,22.949,28.320,0
1539629460.524,24.902,-4.395,14.648,22.949,61.035,0
1539629460.528,19.531,-2.930,18.555,21.484,88.379,0
1539629460.532,23.438,0.000,20.508,21.484,69.336,0
1539629460.535,33.203,-1.465,17.578,24.902,9.766,0
1539629460.539,20.508,-5.859,20.020,33.203,12.695,0
1539629460.543,11.230,-4.883,22.949,32.227,105.957,0
1539629460.547,20.020,2.930,22.949,32.227,154.785,0
1539629460.551,14.160,7.812,20.996,34.180,61.035,0
1539629460.555,25.391,4.883,16.113,30.273,41.504,0
1539629460.559,30.762,5.371,14.648,21.973,66.895,0
1539629460.563,21.484,9.766,16.602,25.391,67.383,0
1539629460.567,26.367,14.160,22.949,30.273,99.121,0
1539629460.571,24.902,17.090,23.926,30.273,85.449,0
1539629460.574,17.090,25.879,18.066,30.762,27.344,0
1539629460.578,22.461,32.715,20.508,30.762,34.668,0
1539629460.582,35.645,33.203,29.785,25.879,54.199,0
1539629460.586,21.484,28.320,31.738,32.227,33.203,0
1539629460.590,6.836,21.973,20.020,34.668,22.461,0
1539629460.594,15.137,29.297,17.578,27.832,36.621,0
1539629460.598,23.926,40.527,18.555,25.879,-53.711,0
1539629460.602,22.949,48.828,14.160,22.461,-53.223,0
1539629460.606,25.391,51.270,16.113,19.531,45.898,0
1539629460.610,24.414,43.945,19.531,20.996,75.195,0
1539629460.614,28.809,38.574,19.043,20.508,38.086,0
1539629460.617,25.879,46.387,16.113,26.855,-4.395,0
1539629460.621,19.531,50.781,15.625,25.879,-0.977,0
1539629460.625,28.809,49.805,12.695,23.438,64.453,0
1539629460.629,29.297,46.387,18.555,23.438,3.906,0
1539629460.633,30.273,40.039,29.297,20.508,-2.930,0
1539629460.637,32.715,33.203,23.438,23.926,13.184,0
1539629460.641,23.438,33.691,18.555,10.254,10.254,0
1539629460.645,14.648,40.527,20.508,5.371,77.148,0
1539629460.649,23.926,45.410,16.602,9.277,19.531,0
1539629460.653,21.484,38.574,19.531,11.230,19.043,0
1539629460.657,26.855,30.273,28.809,26.367,98.633,0
1539629460.660,39.551,35.645,30.273,39.551,32.715,0
1539629460.664,23.926,49.805,26.855,33.691,8.789,0
1539629460.668,19.531,52.246,24.902,13.184,12.695,0
1539629460.672,30.762,43.945,21.484,14.160,29.297,0
1539629460.676,37.598,51.270,21.973,34.180,85.449,0
1539629460.680,49.805,48.340,24.902,46.875,46.387,0
1539629460.684,45.898,36.133,21.973,45.410,21.973,0
1539629460.688,38.574,34.180,20.020,40.039,49.805,0
1539629460.692,43.457,30.273,23.926,37.598,59.082,0
1539629460.696,51.758,43.945,36.133,58.594,16.602,0
1539629460.699,75.195,59.082,49.805,69.824,4.395,0
1539629460.703,78.613,56.152,52.246,57.129,44.434,0
1539629460.707,53.223,53.223,45.898,54.199,38.574,0
1539629460.711,52.246,55.664,46.387,59.570,57.129,0
1539629460.715,54.199,49.805,45.898,60.547,92.285,0
1539629460.719,49.316,48.340,34.180,49.316,49.316,0
1539629460.723,57.129,52.734,34.180,50.781,26.855,0
1539629460.727,67.383,59.570,50.781,62.500,29.785,0
1539629460.731,71.289,65.918,57.617,67.871,43.945,0
1539629460.735,72.754,65.918,55.664,65.918,16.602,0
1539629460.739,87.402,75.684,54.688,76.172,-32.715,0
1539629460.742,92.285,82.031,61.523,90.332,0.488,0
1539629460.746,89.355,90.332,71.777,88.379,15.137,0
1539629460.750,95.703,94.238,74.707,88.379,56.152,0
1539629460.754,92.285,84.473,68.848,80.566,74.707,0
1539629460.758,80.566,72.754,58.594,67.871,48.340,0
1539629460.762,73.242,61.035,46.875,60.059,65.918,0
1539629460.766,69.824,55.664,40.039,55.664,34.180,0
1539629460.770,60.547,55.664,39.551,54.199,17.090,0
1539629460.774,44.922,53.711,35.645,46.387,42.969,0
1539629460.778,45.410,50.781,35.156,44.922,0.977,0
1539629460.782,45.898,36.621,36.621,39.062,-33.691,0
1539629460.785,38.574,26.855,25.879,38.086,-48.340,0
1539629460.789,31.738,33.203,15.137,38.086,39.551,0
1539629460.793,21.484,29.297,15.625,34.180,55.176,0
1539629460.797,20.508,24.902,19.531,36.133,-9.277,0
1539629460.801,23.438,34.668,21.484,27.832,49.316,0
1539629460.805,35.156,42.480,21.973,23.438,60.547,0
1539629460.809,35.645,32.227,19.043,26.367,29.785,0
1539629460.813,28.320,24.902,19.531,23.926,21.973,0
1539629460.817,24.902,28.320,19.531,19.043,29.297,0
1539629460.821,25.879,28.809,14.160,15.625,21.973,0
1539629460.824,28.809,34.668,15.137,21.484,42.969,0
1539629460.828,18.555,36.133,19.531,33.203,22.949,0
1539629460.832,12.207,29.297,19.043,30.273,-44.434,0
1539629460.836,17.090,33.203,13.672,18.066,21.973,0
1539629460.840,21.973,30.273,15.625,15.137,81.543,0
1539629460.844,23.926,26.855,12.207,21.484,50.293,0
1539629460.848,22.461,32.227,10.254,25.879,54.199,0
1539629460.852,15.625,32.227,16.113,23.438,68.848,0
1539629460.856,25.879,33.203,17.578,20.020,66.895,0
1539629460.860,24.902,26.367,18.555,21.973,30.762,0
1539629460.864,6.836,16.602,19.043,22.461,40.527,0
1539629460.867,8.789,21.484,18.066,16.602,31.250,0
1539629460.871,26.855,26.855,18.555,12.695,55.664,0
1539629460.875,22.461,30.762,20.020,20.508,22.949,0
1539629460.879,9.766,31.738,20.508,22.461,19.043,0
1539629460.883,19.043,29.297,20.020,20.020,33.691,0
1539629460.887,21.484,27.832,22.949,24.414,-10.254,0
1539629460.891,23.438,30.762,25.391,25.391,9.766,0
1539629460.895,25.391,35.156,19.043,21.973,24.414,0
1539629460.899,21.973,31.250,15.137,20.020,46.875,0
1539629460.903,20.020,30.762,19.531,26.855,63.477,0
1539629460.907,18.555,32.715,23.926,24.902,9.277,0
1539629460.910,16.602,24.414,26.855,16.113,-11.230,0
1539629460.914,16.602,26.855,26.367,13.672,36.133,0
1539629460.918,18.555,28.320,20.020,7.324,4.395,0
1539629460.922,20.996,26.855,23.926,8.789,14.648,0
1539629460.926,10.742,31.250,29.785,8.789,41.992,0
1539629460.930,6.348,24.414,21.973,5.371,22.949,0
1539629460.934,18.555,22.461,18.555,8.789,84.961,0
1539629460.938,13.184,25.879,23.438,12.207,116.211,0
1539629460.942,10.742,24.902,23.438,15.137,70.312,0
1539629460.946,19.531,35.645,19.531,23.926,64.453,0
1539629460.949,16.113,30.762,19.531,27.344,56.641,0
1539629460.953,19.531,23.438,22.461,22.949,42.969,0
1539629460.957,24.414,33.691,24.902,17.578,28.809,0
1539629460.961,13.184,26.855,27.832,26.367,-8.789,0
1539629460.965,16.602,23.438,26.367,33.691,8.301,0
1539629460.969,18.066,32.227,19.531,21.973,8.301,0
1539629460.973,8.789,30.762,16.602,12.207,29.297,0
1539629460.977,14.160,30.762,19.531,18.555,7.324,0
1539629460.981,25.879,35.645,20.996,25.391,3.906,0
1539629460.985,45.898,35.156,15.137,35.645,13.672,0
1539629460.989,39.062,37.109,16.113,37.109,-17.578,0
1539629460.992,7.812,25.879,24.902,18.066,-1.953,0
1539629460.996,-2.441,16.113,25.879,7.812,-28.809,0
1539629461.000,1.465,28.809,24.414,5.859,-26.855,0
1539629461.004,-5.859,27.832,29.297,-8.789,-30.273,0
1539629461.008,-11.230,27.344,22.461,-15.625,-45.898,0
1539629461.012,-16.602,29.297,14.648,-14.160,-46.875,0
1539629461.016,-28.809,19.531,20.020,-16.113,-5.371,0
1539629461.020,-20.996,19.531,21.484,-16.602,-14.160,0
1539629461.024,-16.602,22.461,19.043,-20.508,-3.906,0
1539629461.028,-18.555,21.484,19.043,-18.555,-13.672,0
1539629461.032,-19.531,19.043,22.461,-11.230,-25.391,0
1539629461.035,-7.324,22.949,24.902,-0.977,22.461,0
1539629461.039,6.348,23.926,23.926,4.395,2.441,0
1539629461.043,-3.418,17.090,22.949,8.789,14.648,0
1539629461.047,-4.395,18.066,24.414,6.836,10.742,0
1539629461.051,0.000,23.438,24.414,-1.953,-28.809,0
1539629461.055,5.859,27.344,24.902,4.883,-31.738,0
1539629461.059,5.371,21.484,23.438,10.254,102.539,0
1539629461.063,-9.766,20.508,20.508,4.883,83.008,0
1539629461.067,1.953,27.832,23.926,8.789,1.953,0
1539629461.071,11.230,28.320,21.484,15.625,46.875,0
1539629461.074,-1.465,25.879,18.066,14.648,29.297,0
1539629461.078,5.859,33.203,22.949,12.207,-9.766,0
1539629461.082,16.602,32.715,27.832,16.602,4.883,0
1539629461.086,12.207,25.391,27.832,17.578,62.500,0
1539629461.090,17.090,32.715,23.438,11.230,49.316,0
1539629461.094,7.324,36.133,27.344,7.324,13.672,0
1539629461.098,6.348,37.109,31.250,13.184,21.484,0
1539629461.102,17.090,39.551,27.344,12.695,33.691,0
1539629461.106,18.555,41.992,32.715,10.742,10.742,0
1539629461.110,19.531,49.316,37.109,13.184,0.000,0
1539629461.114,21.973,39.551,33.203,15.625,60.059,0
1539629461.117,16.113,32.227,31.250,13.672,21.973,0
1539629461.121,20.020,36.621,25.391,13.672,0.488,0
1539629461.125,23.438,30.762,24.414,16.602,52.246,0
1539629461.129,14.160,28.320,31.738,21.484,13.184,0
1539629461.133,16.113,40.527,34.668,20.020,-25.879,0
1539629461.137,22.461,43.457,32.715,25.879,44.434,0
1539629461.141,19.531,37.109,30.762,30.273,86.914,0
1539629461.145,17.090,33.203,36.133,30.273,57.129,0
1539629461.149,15.625,31.738,34.180,22.949,1.953,0
1539629461.153,22.949,36.621,30.762,21.484,-20.996,0
1539629461.157,32.715,38.574,31.250,34.180,3.418,0
1539629461.160,24.414,31.738,31.738,31.738,34.668,0
1539629461.164,22.949,33.203,30.762,28.809,11.719,0
1539629461.168,25.879,37.109,30.273,23.926,13.672,0
1539629461.172,20.020,31.738,29.297,31.250,19.531,0
1539629461.176,12.695,28.809,25.391,36.133,24.414,0
1539629461.180,12.207,29.297,27.832,24.902,39.551,0
1539629461.184,19.043,27.344,27.832,24.414,76.172,0
1539629461.188,31.250,25.879,25.879,19.531,72.754,0
1539629461.192,27.832,24.902,29.297,23.926,31.250,0
1539629461.196,15.625,19.531,30.762,34.180,39.062,0
1539629461.199,10.254,20.996,30.273,33.203,35.156,0
1539629461.203,18.555,27.344,28.809,24.414,23.926,0
1539629461.207,20.508,23.438,28.809,18.555,0.000,0
1539629461.211,12.207,28.320,25.879,13.184,2.930,0
1539629461.215,15.137,31.738,21.484,9.277,2.441,0
1539629461.219,19.043,25.391,20.508,18.555,51.270,0
1539629461.223,22.461,22.949,28.809,22.949,80.566,0
1539629461.227,22.461,19.531,35.156,20.508,46.387,0
1539629461.231,23.926,20.508,29.785,20.996,50.781,0
1539629461.235,28.809,23.438,25.879,24.902,36.133,0
1539629461.239,27.344,22.949,28.809,18.066,11.230,0
1539629461.242,35.156,20.020,30.273,19.043,52.734,0
1539629461.246,24.414,20.996,22.949,29.297,57.617,0
1539629461.250,11.719,24.414,26.855,28.809,47.852,0
1539629461.254,19.043,17.090,33.203,21.973,47.852,0
1539629461.258,29.297,6.836,27.832,26.855,7.324,0
1539629461.262,37.109,6.836,21.484,34.180,67.871,0
1539629461.266,29.785,3.418,20.996,28.320,67.871,0
1539629461.270,21.973,-6.836,24.902,26.367,30.273,0
1539629461.274,28.320,-6.836,28.320,24.902,40.039,0
1539629461.278,27.344,-3.418,26.367,23.438,54.199,0
1539629461.282,19.531,-8.301,28.320,28.320,46.875,0
1539629461.285,28.809,-4.883,37.109,22.949,39.551,0
1539629461.289,34.180,2.930,32.227,16.602,70.801,0
1539629461.293,26.367,3.418,25.879,24.902,42.480,0
1539629461.297,22.461,-0.977,28.320,28.320,16.113,0
1539629461.301,22.461,1.953,26.855,18.066,66.895,0
1539629461.305,27.344,19.043,21.484,17.578,60.547,0
1539629461.309,39.062,22.949,21.973,26.367,57.617,0
1539629461.313,37.109,19.531,33.203,28.320,79.590,0
1539629461.317,12.695,23.438,37.109,18.555,39.062,0
1539629461.321,12.695,25.879,29.785,23.438,20.020,0
1539629461.324,21.973,27.344,31.250,37.109,-40.039,0
1539629461.328,18.066,23.926,33.203,31.250,-17.090,0
1539629461.332,14.648,24.414,28.320,17.578,61.035,0
1539629461.336,5.371,34.668,30.762,19.531,73.242,0
1539629461.340,14.648,29.785,27.344,26.855,25.879,0
1539629461.344,26.855,18.555,24.902,18.555,45.898,0
1539629461.348,24.414,24.414,22.949,25.391,95.215,0
1539629461.352,35.645,33.203,22.461,31.738,75.195,0
1539629461.356,32.227,40.039,31.738,31.738,32.715,0
1539629461.360,25.391,41.992,31.738,35.645,44.922,0
1539629461.364,31.250,40.527,29.785,37.598,51.758,0
1539629461.367,24.414,39.062,26.855,37.598,2.441,0
1539629461.371,27.344,35.645,24.902,38.086,38.574,0
1539629461.375,36.133,32.715,25.879,41.504,71.289,0
1539629461.379,29.785,32.715,27.832,31.738,17.578,0
1539629461.383,30.762,39.062,30.273,32.227,9.766,0
1539629461.387,37.598,39.062,32.715,39.062,103.027,0
1539629461.391,36.133,36.133,32.715,31.250,102.051,0
1539629461.395,28.320,33.691,28.320,27.832,55.176,0
1539629461.399,22.461,27.832,26.855,23.926,18.555,1
1539629461.403,37.598,31.250,21.973,25.879,22.461,0
1539629461.407,30.762,39.062,15.625,28.809,39.551,0
1539629461.410,23.438,37.598,23.438,28.320,39.062,0
1539629461.414,26.855,38.574,31.250,29.785,42.969,0
1539629461.418,30.273,39.062,29.785,35.156,41.504,0
1539629461.422,35.645,33.691,25.391,34.668,75.684,0
1539629461.426,40.527,34.668,28.809,42.969,55.664,0
1539629461.430,39.062,34.668,28.809,41.016,21.484,0
1539629461.434,32.715,34.668,23.926,20.020,-6.348,0
1539629461.438,26.367,36.621,22.461,22.461,-30.762,0
1539629461.442,26.855,35.156,21.973,32.715,-50.781,0
1539629461.446,28.320,39.062,24.902,40.527,-42.480,0
1539629461.449,21.973,41.504,24.414,43.945,31.738,0
1539629461.453,35.156,46.875,23.438,42.969,42.480,0
1539629461.457,42.480,42.969,33.203,45.898,58.594,0
1539629461.461,31.738,24.902,35.645,45.898,59.082,0
1539629461.465,34.180,28.320,32.227,49.805,92.285,0
1539629461.469,39.551,29.785,29.297,40.527,34.668,0
1539629461.473,28.320,22.461,24.414,33.203,-17.578,0
1539629461.477,26.855,26.855,25.879,32.715,62.500,0
1539629461.481,33.691,39.551,30.273,32.227,74.707,0
1539629461.485,36.621,39.551,28.809,45.410,59.082,0
1539629461.489,44.922,35.645,22.461,41.992,65.918,0
1539629461.492,31.250,37.598,21.973,36.133,13.184,0
1539629461.496,25.879,35.645,25.391,41.992,18.066,0
1539629461.500,39.551,35.645,24.414,37.109,37.109,0
1539629461.504,38.574,33.203,19.043,40.039,19.043,0
1539629461.508,37.598,37.598,13.672,38.574,-3.418,0
1539629461.512,38.574,35.645,18.066,32.227,36.133,0
1539629461.516,31.738,30.762,22.949,32.715,86.426,0
1539629461.520,34.180,41.992,24.414,33.691,50.781,0
1539629461.524,43.945,47.363,28.809,34.180,-20.996,0
1539629461.528,42.480,41.016,28.809,28.809,-34.180,0
1539629461.532,38.574,41.504,29.785,34.180,15.625,0
1539629461.535,54.199,38.574,27.832,36.621,19.531,0
1539629461.539,53.223,27.344,23.438,29.785,30.762,0
1539629461.543,37.598,30.762,22.949,30.273,10.254,0
1539629461.547,34.668,40.527,20.996,35.156,-42.480,0
1539629461.551,33.691,49.316,20.508,36.621,3.906,0
1539629461.555,42.480,44.434,19.531,27.832,55.664,0
1539629461.559,36.133,39.551,20.996,32.715,12.695,0
1539629461.563,26.367,41.504,25.391,36.133,29.297,0
1539629461.567,35.156,30.762,27.344,20.996,11.719,0
1539629461.571,41.504,26.855,32.715,18.066,15.137,0
1539629461.574,42.480,36.133,30.273,18.555,80.078,0
1539629461.578,42.969,38.086,27.344,17.090,72.266,0
1539629461.582,37.109,30.273,30.762,20.020,43.945,0
1539629461.586,31.250,25.391,29.297,23.438,-6.348,0
1539629461.590,35.156,33.203,33.691,27.344,-37.109,0
1539629461.594,39.062,45.410,31.250,30.273,-7.812,0
1539629461.598,35.645,38.086,18.555,30.762,18.066,0
1539629461.602,25.879,36.621,13.672,22.949,11.230,0
1539629461.606,28.320,40.039,24.414,23.438,-3.906,0
1539629461.610,51.270,27.344,35.156,46.875,47.363,0
1539629461.614,42.480,23.438,29.297,51.270,38.574,0
1539629461.617,21.484,29.785,25.879,24.902,19.043,0
1539629461.621,26.367,35.156,31.250,28.809,74.707,0
1539629461.625,35.645,28.809,23.926,34.180,46.875,0
1539629461.629,34.668,17.090,18.555,18.555,24.414,0
1539629461.633,33.691,22.949,24.902,18.555,67.871,0
1539629461.637,27.832,31.250,24.414,17.090,47.363,0
1539629461.641,26.367,19.531,23.438,21.973,6.348,0
1539629461.645,27.832,18.555,22.461,23.926,41.992,0
1539629461.649,32.227,27.832,18.555,23.438,25.879,0
1539629461.653,50.293,30.762,22.461,26.855,-15.137,0
1539629461.657,47.852,38.086,27.832,31.738,-3.418,0
1539629461.660,31.250,37.598,23.926,34.180,23.438,0
1539629461.664,31.738,33.203,20.020,32.227,33.691,0
1539629461.668,32.715,34.180,22.949,32.715,49.316,0
1539629461.672,28.320,37.109,25.879,30.762,37.598,0
1539629461.676,33.203,37.109,25.879,29.785,19.043,0
1539629461.680,37.109,41.504,21.484,25.391,8.301,0
1539629461.684,30.273,37.109,21.973,23.438,0.977,0
1539629461.688,33.691,30.762,26.855,30.762,37.109,0
1539629461.692,36.133,36.133,24.414,40.039,108.398,0
1539629461.696,26.367,37.598,19.043,33.203,88.867,0
1539629461.699,29.785,36.621,23.926,20.508,45.898,0
1539629461.703,27.344,41.992,25.879,22.461,15.625,0
1539629461.707,20.996,47.852,20.020,26.855,45.898,0
1539629461.711,25.391,38.086,19.043,27.832,45.410,0
1539629461.715,36.621,23.926,19.531,36.621,39.062,0
1539629461.719,35.156,35.156,22.461,37.598,38.574,0
1539629461.723,28.809,38.086,30.762,35.645,33.691,0
1539629461.727,39.062,34.180,34.668,38.574,68.359,0
1539629461.731,32.715,42.969,31.738,34.668,17.578,0
1539629461.735,19.531,41.016,26.855,26.367,14.160,0
1539629461.739,24.902,36.133,23.438,30.762,54.688,0
1539629461.742,24.902,38.086,28.320,31.738,51.758,0
1539629461.746,28.320,44.922,31.250,32.227,38.574,0
1539629461.750,32.227,42.480,25.391,36.621,31.250,0
1539629461.754,32.227,37.598,22.949,31.250,11.230,0
1539629461.758,34.180,38.574,21.484,25.879,13.184,0
1539629461.762,24.902,44.434,26.855,35.156,1.953,0
1539629461.766,27.344,43.457,31.250,34.180,-0.488,0
1539629461.770,28.809,33.691,29.785,26.855,40.527,0
1539629461.774,35.156,32.715,32.227,41.016,51.758,0
1539629461.778,33.691,27.832,36.133,50.293,81.543,0
1539629461.782,35.156,28.809,31.250,33.203,107.422,0
1539629461.785,38.574,35.645,32.715,26.855,60.059,0
1539629461.789,30.273,39.062,24.902,35.156,37.109,0
1539629461.793,29.785,45.410,17.090,44.922,44.434,0
1539629461.797,27.832,38.086,27.832,41.992,10.254,0
1539629461.801,29.297,28.809,32.227,23.438,47.363,0
1539629461.805,35.645,37.109,31.738,20.508,90.820,0
1539629461.809,32.715,44.434,32.227,25.391,0.000,0
1539629461.813,40.527,34.180,23.438,27.832,-6.836,0
1539629461.817,39.551,34.668,15.137,25.391,10.742,0
1539629461.821,25.391,42.480,22.949,29.297,35.645,0
1539629461.824,21.973,38.574,29.297,31.738,41.992,0
1539629461.828,24.902,34.180,27.344,30.273,0.488,0
1539629461.832,25.391,33.691,25.879,26.855,34.180,0
1539629461.836,26.367,30.762,30.273,23.438,28.320,0
1539629461.840,30.762,33.203,31.250,26.367,13.184,0
1539629461.844,26.367,41.016,26.367,34.180,63.477,0
1539629461.848,35.156,39.551,26.855,42.480,39.551,0
1539629461.852,35.156,36.133,32.715,41.992,55.664,0
1539629461.856,23.438,30.762,28.320,32.715,47.363,0
1539629461.860,29.785,31.250,20.508,32.227,22.461,0
1539629461.864,21.484,41.016,21.484,28.320,38.574,0
1539629461.867,23.926,39.551,26.855,19.043,37.109,0
1539629461.871,30.762,42.480,31.250,24.902,20.508,0
1539629461.875,28.809,39.062,30.273,35.156,-8.789,0
1539629461.879,32.715,34.668,27.344,31.250,4.395,0
1539629461.883,24.902,37.598,23.438,18.555,25.391,0
1539629461.887,22.461,35.645,24.414,19.531,30.273,0
1539629461.891,36.133,39.551,23.438,32.227,31.738,0
1539629461.895,34.668,38.574,24.414,35.645,52.734,0
1539629461.899,33.203,42.969,26.855,33.691,59.082,0
1539629461.903,41.016,42.480,26.367,28.809,41.504,0
1539629461.907,46.875,38.086,28.320,31.738,14.648,0
1539629461.910,44.922,47.363,25.391,33.203,-14.648,0
1539629461.914,39.551,37.598,25.879,22.949,74.219,0
1539629461.918,34.668,26.367,28.320,22.461,76.172,0
1539629461.922,32.227,32.227,25.879,38.574,23.438,0
1539629461.926,37.598,39.551,25.391,39.062,75.195,0
1539629461.930,32.715,42.969,27.832,26.855,83.008,0
1539629461.934,32.227,38.574,28.809,21.484,29.785,0
1539629461.938,39.062,32.715,27.344,19.531,-26.367,0
1539629461.942,44.922,32.227,27.832,22.949,2.930,0
1539629461.946,34.180,32.227,28.809,25.391,57.129,0
1539629461.949,29.297,32.227,26.855,18.066,35.645,0
1539629461.953,33.203,29.785,22.461,13.184,54.688,0
1539629461.957,24.414,33.203,18.555,23.926,71.777,0
1539629461.961,26.367,35.645,19.043,17.578,31.738,0
1539629461.965,33.203,26.367,28.320,12.695,28.320,0
1539629461.969,42.480,26.855,31.250,23.438,32.715,0
1539629461.973,34.668,36.133,28.809,23.926,19.043,0
1539629461.977,21.484,37.598,25.391,25.391,37.598,0
1539629461.981,24.902,32.715,22.949,21.973,49.316,0
1539629461.985,27.344,30.762,25.391,20.508,-4.395,0
1539629461.989,27.344,33.691,28.320,24.902,-24.902,0
1539629461.992,30.273,37.109,26.367,20.996,40.527,0
1539629461.996,26.855,34.668,21.973,21.484,36.621,0
1539629462.000,32.715,27.832,24.414,29.785,6.836,0
1539629462.004,28.809,29.785,27.832,20.508,7.812,0
1539629462.008,16.602,30.762,19.043,14.648,1.953,0
1539629462.012,17.090,29.785,16.113,26.367,57.617,0
1539629462.016,27.344,22.949,20.996,30.762,54.199,0
1539629462.020,26.855,24.902,24.902,26.855,33.691,0
1539629462.024,18.555,30.762,32.715,32.715,52.734,0
1539629462.028,29.297,35.156,32.715,34.668,49.805,0
1539629462.032,29.785,37.109,30.762,34.180,24.902,0
1539629462.035,20.508,31.250,30.273,36.133,-37.598,0
1539629462.039,22.949,35.156,34.668,29.297,56.152,0
1539629462.043,21.484,31.250,32.227,34.668,81.543,0
1539629462.047,25.391,23.926,25.879,38.086,13.184,0
1539629462.051,29.297,26.855,21.484,20.508,50.781,0
1539629462.055,17.090,31.738,21.484,9.277,52.246,0
1539629462.059,25.391,36.621,32.715,24.414,-7.324,0
1539629462.063,39.062,32.227,33.691,35.156,-34.668,0
1539629462.067,22.949,31.738,36.133,22.949,-32.715,0
1539629462.071,22.949,34.668,29.297,18.555,-22.949,0
1539629462.074,32.715,31.738,18.555,27.832,35.156,0
1539629462.078,26.367,27.344,23.926,22.949,32.227,0
1539629462.082,21.484,33.691,23.926,15.137,23.926,0
1539629462.086,31.738,39.062,25.879,29.297,68.359,0
1539629462.090,39.551,32.227,30.273,32.227,76.172,0
1539629462.094,30.762,26.367,29.785,29.297,52.734,0
1539629462.098,39.062,34.668,28.320,29.785,57.129,0
1539629462.102,42.480,41.016,30.273,29.785,-7.324,0
1539629462.106,23.438,34.180,29.297,29.297,-3.418,0
1539629462.110,13.184,33.203,25.879,26.367,67.871,0
1539629462.114,19.531,33.203,27.832,24.414,86.914,0
1539629462.117,15.137,28.809,33.203,24.414,40.039,0
1539629462.121,12.695,31.250,33.203,29.297,2.930,0
1539629462.125,23.926,34.668,30.762,27.344,27.344,0
1539629462.129,19.043,27.344,32.227,26.367,-8.301,0
1539629462.133,19.531,25.879,29.297,21.484,47.363,0
1539629462.137,32.715,35.156,19.043,19.043,90.820,0
1539629462.141,32.227,34.668,17.090,19.043,-4.883,0
1539629462.145,31.738,22.461,24.414,18.555,-6.348,0
1539629462.149,36.621,28.809,29.297,26.367,58.105,0
1539629462.153,25.879,41.992,31.250,22.949,-4.883,0
1539629462.157,24.414,49.805,32.715,20.996,-41.016,0
1539629462.160,26.367,44.434,36.133,24.902,38.086,0
1539629462.164,23.438,31.250,30.273,19.531,61.035,0
1539629462.168,26.367,31.738,22.461,26.855,48.340,0
1539629462.172,31.250,38.086,20.996,27.344,47.852,0
1539629462.176,29.297,41.016,23.438,22.949,35.156,0
1539629462.180,25.879,39.551,24.414,33.203,23.438,0
1539629462.184,29.297,37.598,24.414,25.879,7.812,0
1539629462.188,26.367,33.691,25.879,19.531,14.160,0
1539629462.192,31.738,33.691,21.484,16.113,92.285,0
1539629462.196,39.062,34.180,17.578,13.184,86.914,0
1539629462.199,34.180,29.785,23.438,21.973,-2.441,0
1539629462.203,23.438,34.180,28.320,27.832,5.371,0
1539629462.207,21.484,33.691,28.809,34.180,22.461,0
1539629462.211,29.785,29.297,25.879,35.156,25.879,0
1539629462.215,29.297,36.133,22.949,31.738,30.273,0
1539629462.219,31.250,35.156,24.902,33.691,-18.555,0
1539629462.223,32.715,34.668,26.367,33.691,-7.812,0
1539629462.227,30.273,34.668,29.785,34.668,20.508,0
1539629462.231,35.645,31.250,29.785,38.086,34.668,0
1539629462.235,36.133,34.180,25.391,31.738,-8.789,0
1539629462.239,29.297,27.344,25.391,32.715,-55.664,0
1539629462.242,26.367,21.973,27.832,34.668,-19.043,0
1539629462.246,22.461,31.250,28.320,26.367,45.898,0
1539629462.250,21.484,35.156,22.461,24.902,42.480,0
1539629462.254,23.926,28.809,24.902,26.855,8.789,0
1539629462.258,20.996,27.832,29.785,25.391,5.859,0
1539629462.262,26.855,31.738,30.273,28.809,32.715,0
1539629462.266,30.273,28.320,27.344,30.273,41.016,0
1539629462.270,36.621,26.855,21.973,20.020,61.523,0
1539629462.274,30.273,33.203,23.926,20.020,63.477,0
1539629462.278,20.508,39.551,24.414,25.391,60.059,0
1539629462.282,25.879,32.227,21.973,22.949,74.219,0
1539629462.285,20.996,30.762,23.438,29.297,29.297,0
1539629462.289,21.973,35.645,24.902,33.203,32.715,0
1539629462.293,29.297,35.156,24.902,32.715,18.555,0
1539629462.297,27.832,29.297,26.367,27.344,8.789,0
1539629462.301,26.855,15.137,30.273,20.996,38.086,0
1539629462.305,38.574,22.949,38.086,23.926,43.457,0
1539629462.309,32.715,30.273,31.250,29.785,37.109,0
1539629462.313,24.414,30.762,27.344,30.273,45.410,0
1539629462.317,30.762,32.715,30.762,38.086,65.430,0
1539629462.321,26.367,33.691,27.344,44.434,20.996,0
1539629462.324,20.020,36.621,29.785,36.621,20.020,0
1539629462.328,20.020,26.855,29.785,29.297,73.242,0
1539629462.332,25.391,24.902,26.367,33.691,55.664,0
1539629462.336,29.297,30.762,30.273,34.180,20.020,0
1539629462.340,25.879,32.715,32.715,29.785,41.992,0
1539629462.344,25.879,26.367,24.902,37.109,41.016,0
1539629462.348,27.832,29.785,22.461,39.551,29.785,0
1539629462.352,25.879,40.527,29.785,36.621,0.977,0
1539629462.356,32.715,43.457,27.832,37.109,-26.855,0
1539629462.360,35.645,41.992,24.902,38.574,5.859,0
1539629462.364,37.598,33.203,24.902,33.691,57.617,0
1539629462.367,37.109,22.949,24.414,25.391,46.875,0
1539629462.371,29.297,32.715,28.809,35.156,31.250,0
1539629462.375,38.574,48.828,33.203,46.875,59.570,0
1539629462.379,35.156,40.527,33.691,34.668,78.125,0
1539629462.383,29.297,33.203,25.391,21.973,59.082,0
1539629462.387,32.227,41.504,21.484,21.973,57.617,0
1539629462.391,25.391,35.156,17.578,30.762,69.336,0
1539629462.395,32.715,29.785,15.625,36.621,52.246,0
1539629462.399,35.156,32.715,23.926,36.133,92.773,0
1539629462.403,32.227,34.180,27.832,32.715,68.848,0
1539629462.407,28.809,32.715,22.949,29.785,-24.414,0
1539629462.410,30.273,32.227,16.602,28.320,-10.254,0
1539629462.414,44.434,45.410,18.555,34.668,16.113,0
1539629462.418,44.434,39.551,30.273,37.598,41.992,0
1539629462.422,34.180,16.113,31.250,32.227,41.992,0
1539629462.426,31.250,20.020,20.508,26.855,35.645,0
1539629462.430,42.480,34.668,18.555,31.250,11.230,0
1539629462.434,39.551,32.227,13.184,38.086,-30.762,0
1539629462.438,29.297,24.902,10.254,25.391,-3.418,0
1539629462.442,28.320,21.973,18.555,24.414,70.801,0
1539629462.446,25.391,33.203,21.973,31.250,96.680,0
1539629462.449,26.855,39.551,20.996,33.691,54.199,0
1539629462.453,31.738,36.621,22.949,41.504,58.594,0
1539629462.457,26.367,33.203,23.438,42.969,25.391,0
1539629462.461,23.438,28.809,17.578,39.062,0.000,0
1539629462.465,21.484,25.391,23.926,31.250,56.641,0
1539629462.469,20.996,20.508,29.785,23.438,30.762,0
1539629462.473,9.766,13.184,21.973,22.949,0.000,0
1539629462.477,2.441,13.672,17.578,33.691,33.691,0
1539629462.481,11.230,18.555,19.043,29.297,72.754,0
1539629462.485,13.184,21.973,17.578,24.902,56.152,0
1539629462.489,17.090,29.785,25.879,31.250,36.621,0
1539629462.492,27.832,34.180,34.180,25.879,48.340,0
1539629462.496,14.648,21.973,20.020,16.113,-6.348,0
1539629462.500,11.230,15.625,12.207,15.137,31.250,0
1539629462.504,22.461,17.090,22.461,21.484,111.816,0
1539629462.508,19.043,9.277,24.414,26.855,66.406,0
1539629462.512,20.020,16.602,18.066,30.273,14.160,0
1539629462.516,28.320,26.367,18.066,29.297,7.324,0
1539629462.520,30.762,24.414,20.996,24.902,49.805,0
1539629462.524,22.461,23.438,21.973,25.391,43.945,0
1539629462.528,19.043,27.832,21.973,31.250,37.109,0
1539629462.532,23.438,26.367,19.531,20.020,12.207,0
1539629462.535,31.738,25.391,20.020,21.973,1.465,0
1539629462.539,29.297,26.855,17.578,29.297,95.215,0
1539629462.543,26.855,19.043,16.602,23.438,108.398,0
1539629462.547,34.668,14.160,21.484,26.855,32.715,0
1539629462.551,42.480,25.391,19.531,30.762,-21.973,0
1539629462.555,39.551,32.227,20.996,30.273,-23.438,0
1539629462.559,31.738,33.203,26.855,23.438,20.996,0
1539629462.563,27.832,38.574,28.320,28.809,49.805,0
1539629462.567,28.320,41.992,26.855,32.715,32.715,0
1539629462.571,35.645,30.273,21.973,16.602,-3.418,0
1539629462.574,36.621,21.484,20.996,13.184,73.242,0
1539629462.578,30.273,27.832,23.926,25.391,76.660,0
1539629462.582,34.180,33.203,24.414,27.344,3.418,0
1539629462.586,33.691,35.645,18.555,25.879,3.418,0
1539629462.590,25.391,29.785,20.996,27.344,16.113,0
1539629462.594,26.855,30.762,27.344,24.902,76.660,0
1539629462.598,30.762,36.133,25.391,32.227,75.195,0
1539629462.602,27.344,29.785,23.926,32.715,62.012,0
1539629462.606,20.020,21.484,24.414,28.320,58.105,0
1539629462.610,29.297,22.949,26.367,28.809,25.391,0
1539629462.614,24.902,21.973,24.414,29.297,62.988,0
1539629462.617,15.137,33.691,21.973,29.297,32.715,0
1539629462.621,22.949,32.227,18.555,22.949,-15.137,0
1539629462.625,32.227,19.043,18.555,26.367,-0.488,0
1539629462.629,33.203,29.297,16.602,44.922,7.324,0
1539629462.633,20.508,31.738,16.113,32.715,-12.207,0
1539629462.637,15.137,20.020,26.855,13.184,20.020,0
1539629462.641,28.320,17.578,27.832,18.555,38.574,0
1539629462.645,40.039,27.344,29.785,25.879,5.371,0
1539629462.649,33.203,35.645,33.691,30.762,12.207,0
1539629462.653,31.250,33.691,29.297,25.391,11.230,0
1539629462.657,32.715,28.809,20.508,20.996,53.711,0
1539629462.660,42.480,31.738,24.902,31.250,44.434,0
1539629462.664,43.945,30.273,26.855,31.250,41.992,0
1539629462.668,34.668,27.344,23.438,31.250,86.426,0
1539629462.672,33.691,33.203,22.461,33.203,88.867,0
1539629462.676,37.109,35.156,20.996,28.320,120.117,0
1539629462.680,31.738,32.715,22.949,33.691,113.770,0
1539629462.684,26.855,29.297,26.855,34.668,110.352,0
1539629462.688,23.926,26.367,31.250,37.109,104.980,0
1539629462.692,20.020,22.949,31.738,33.691,45.898,0
1539629462.696,16.602,29.785,26.367,19.043,18.066,0
1539629462.699,25.879,31.738,24.414,17.578,29.297,0
1539629462.703,23.438,26.855,27.832,24.902,-16.113,0
1539629462.707,15.625,36.621,29.785,27.344,13.184,0
1539629462.711,21.484,34.668,28.320,19.531,5.371,0
1539629462.715,14.160,22.461,21.973,26.367,25.391,0
1539629462.719,13.672,23.926,25.391,18.555,79.590,0
1539629462.723,15.625,29.297,27.344,6.348,22.949,0
1539629462.727,11.719,28.809,21.973,14.648,9.277,0
1539629462.731,13.672,33.691,18.066,22.949,29.297,0
1539629462.735,22.949,36.621,17.090,17.578,3.418,0
1539629462.739,30.273,30.762,21.484,15.625,-6.348,0
1539629462.742,32.715,30.762,25.391,24.414,12.207,0
1539629462.746,20.508,36.621,25.391,28.320,24.902,0
1539629462.750,25.391,35.156,26.855,36.621,52.734,0
1539629462.754,43.945,37.109,23.926,41.504,60.059,0
1539629462.758,40.039,44.434,15.625,35.645,-3.418,0
1539629462.762,35.156,35.156,16.113,28.809,-11.230,0
1539629462.766,36.621,25.391,9.277,23.926,28.320,0
1539629462.770,30.762,33.203,13.184,23.438,-0.977,0
1539629462.774,41.992,41.992,26.367,26.367,18.066,0
1539629462.778,51.758,41.504,28.809,27.832,32.227,0
1539629462.782,36.133,33.203,29.297,30.762,-17.090,0
1539629462.785,31.250,36.133,29.297,30.273,-11.719,0
1539629462.789,30.762,45.410,29.785,32.715,21.973,0
1539629462.793,32.227,37.109,32.715,43.945,52.734,0
1539629462.797,34.180,32.715,29.297,43.457,59.082,0
1539629462.801,37.598,32.227,24.902,31.250,41.504,0
1539629462.805,40.039,31.250,22.461,29.297,65.430,0
1539629462.809,44.922,38.086,26.855,33.691,86.914,0
1539629462.813,40.527,43.457,27.832,36.621,79.590,0
1539629462.817,29.785,44.922,27.344,31.738,68.359,0
1539629462.821,32.227,32.715,33.203,35.156,42.969,0
1539629462.824,43.945,33.203,35.156,44.434,41.504,0
1539629462.828,38.086,39.062,32.227,34.180,39.062,1
1539629462.832,19.531,32.227,26.855,28.809,17.090,0
1539629462.836,26.855,40.039,26.367,36.621,-0.488,0
1539629462.840,33.691,47.363,27.344,29.785,49.316,0
1539629462.844,37.109,39.551,23.438,27.832,73.730,0
1539629462.848,34.668,35.645,27.832,31.250,80.078,0
1539629462.852,29.785,43.457,34.180,20.996,58.594,0
1539629462.856,26.855,41.992,39.062,25.879,10.742,0
1539629462.860,32.227,35.156,39.062,35.645,90.332,0
1539629462.864,39.551,35.156,32.715,32.715,87.891,0
1539629462.867,38.574,34.180,23.926,26.855,30.273,0
1539629462.871,38.574,38.086,21.484,27.832,51.270,0
1539629462.875,44.434,45.410,26.367,34.668,11.230,0
1539629462.879,42.969,41.992,26.367,30.762,28.320,0
1539629462.883,33.203,38.574,23.926,26.367,110.840,0
1539629462.887,30.273,36.621,23.438,27.832,73.730,0
1539629462.891,24.414,28.320,26.367,26.855,64.941,0
1539629462.895,26.367,30.762,30.762,34.180,42.480,0
1539629462.899,27.344,31.738,30.762,35.156,-19.531,0
1539629462.903,29.297,31.738,22.461,35.645,-13.672,0
1539629462.907,32.227,35.156,20.020,37.598,34.180,0
1539629462.910,35.645,30.273,26.367,39.062,31.250,0
1539629462.914,33.691,29.785,28.320,42.480,5.371,0
1539629462.918,29.785,28.809,23.926,33.203,-28.809,0
1539629462.922,38.086,27.832,27.344,42.480,10.742,0
1539629462.926,36.133,27.344,33.203,48.828,78.613,0
1539629462.930,38.574,28.320,30.762,40.527,4.883,0
1539629462.934,46.875,39.062,22.461,40.527,-5.371,0
1539629462.938,43.945,45.410,21.484,34.668,79.590,0
1539629462.942,30.762,29.297,21.973,28.809,39.062,0
1539629462.946,28.809,28.320,21.973,31.250,6.348,0
1539629462.949,29.297,35.645,24.414,27.344,-14.160,0
1539629462.953,32.715,28.809,25.391,28.809,-22.949,0
1539629462.957,28.809,24.414,30.273,34.668,18.555,0
1539629462.961,11.230,28.320,35.156,30.762,8.301,0
1539629462.965,14.160,31.738,36.621,26.367,-11.719,0
1539629462.969,19.531,36.133,27.344,22.949,32.227,0
1539629462.973,13.184,38.086,18.555,23.926,75.195,0
1539629462.977,17.578,32.715,18.555,25.391,25.391,0
1539629462.981,23.926,38.574,18.066,21.973,-13.672,0
1539629462.985,13.672,32.715,17.090,18.066,62.988,0
1539629462.989,16.113,14.648,13.184,14.648,61.523,0
1539629462.992,25.879,30.273,14.160,14.160,1.465,0
1539629462.996,16.602,42.480,24.902,22.461,-2.930,0
1539629463.000,27.832,36.133,26.367,25.879,30.273,0
1539629463.004,38.574,32.227,14.648,23.438,53.711,0
1539629463.008,30.762,37.109,11.230,23.438,35.156,0
1539629463.012,25.391,39.062,15.137,27.344,10.254,0
1539629463.016,25.879,26.855,17.578,26.855,20.508,0
1539629463.020,34.668,21.973,18.555,29.785,14.648,0
1539629463.024,39.551,30.762,20.508,37.109,27.832,0
1539629463.028,34.668,29.297,17.578,37.109,22.461,0
1539629463.032,37.598,21.973,13.184,30.762,48.340,0
1539629463.035,36.133,21.484,25.391,31.738,76.660,0
1539629463.039,27.832,25.879,26.855,35.156,26.855,0
1539629463.043,31.250,37.598,20.020,34.668,12.695,0
1539629463.047,31.250,35.645,23.438,40.039,43.457,0
1539629463.051,41.504,20.508,23.926,41.992,19.531,0
1539629463.055,39.551,17.578,21.973,32.227,32.227,0
1539629463.059,29.785,20.020,19.043,22.949,60.547,0
1539629463.063,33.203,27.832,20.020,19.043,8.789,0
1539629463.067,26.367,37.109,20.996,20.020,18.066,0
1539629463.071,25.879,34.180,20.996,25.391,85.449,0
1539629463.074,32.715,24.902,20.020,24.414,22.949,0
1539629463.078,32.227,28.320,10.742,20.996,19.531,0
1539629463.082,24.414,31.738,16.113,19.043,48.828,0
1539629463.086,28.320,24.414,31.738,20.996,41.016,0
1539629463.090,26.855,21.484,28.809,19.531,75.684,0
1539629463.094,23.926,27.832,25.391,17.090,25.391,0
1539629463.098,29.785,32.715,27.832,22.949,1.953,0
1539629463.102,41.992,35.645,31.250,32.715,49.805,0
1539629463.106,41.016,42.480,34.180,34.668,9.766,0
1539629463.110,28.320,39.551,34.180,36.621,-13.672,0
1539629463.114,34.180,40.527,34.668,44.922,36.133,0
1539629463.117,46.875,42.969,29.785,46.387,63.965,0
1539629463.121,43.945,37.109,30.273,44.434,20.020,0
1539629463.125,39.551,42.480,43.945,43.945,-23.926,0
1539629463.129,34.668,47.363,52.246,44.922,5.371,0
1539629463.133,34.668,47.852,45.898,41.992,9.277,0
1539629463.137,39.551,47.852,39.062,40.527,-17.090,0
1539629463.141,45.410,37.598,34.668,42.480,-0.488,0
1539629463.145,38.086,32.227,27.344,33.203,23.926,0
1539629463.149,26.367,25.391,22.949,28.320,29.297,0
1539629463.153,26.855,21.484,26.855,35.645,56.641,0
1539629463.157,35.645,29.785,33.203,27.832,54.688,0
1539629463.160,34.180,33.691,35.156,29.297,17.578,0
1539629463.164,30.762,32.715,31.250,35.156,19.043,0
1539629463.168,34.668,32.715,30.273,30.762,42.969,0
1539629463.172,34.668,27.344,34.180,32.227,26.855,0
1539629463.176,36.621,38.086,33.691,36.621,-8.789,0
1539629463.180,42.969,49.316,29.297,35.156,-5.859,0
1539629463.184,55.176,38.574,23.438,42.480,-13.184,0
1539629463.188,45.410,37.598,21.973,45.898,22.461,0
1539629463.192,35.645,44.922,30.762,39.551,12.695,0
1539629463.196,41.992,43.457,32.227,37.109,15.137,0
1539629463.199,25.879,37.109,29.785,29.785,38.574,0
1539629463.203,27.832,33.691,29.297,30.273,35.156,0
1539629463.207,35.156,45.898,32.227,36.621,30.762,0
1539629463.211,30.273,43.457,31.250,30.762,16.113,0
1539629463.215,27.344,30.273,22.949,19.043,20.996,0
1539629463.219,24.414,38.086,23.438,18.555,9.277,0
1539629463.223,27.832,40.039,34.668,24.414,47.363,0
1539629463.227,23.926,26.367,33.691,23.926,56.152,0
1539629463.231,23.926,30.762,29.297,27.832,34.180,0
1539629463.235,25.391,33.691,29.297,26.855,61.523,0
1539629463.239,16.602,30.762,28.320,22.949,23.926,0
1539629463.242,18.555,28.809,26.367,34.180,50.781,0
1539629463.246,26.855,17.090,24.414,29.297,113.770,0
1539629463.250,26.855,17.090,25.391,35.156,6.348,0
1539629463.254,23.926,30.762,23.438,38.086,9.277,0
1539629463.258,27.344,35.645,18.555,25.879,79.590,0
1539629463.262,29.785,35.645,20.996,24.902,61.035,0
1539629463.266,28.320,23.926,20.508,24.414,48.828,0
1539629463.270,23.926,4.883,19.043,20.020,12.695,0
1539629463.274,17.578,6.348,28.809,20.996,-14.648,0
1539629463.278,19.043,13.672,30.762,29.785,24.902,0
1539629463.282,22.461,11.230,23.438,24.902,7.812,0
1539629463.285,23.926,10.254,23.438,19.531,-13.184,0
1539629463.289,25.391,12.695,26.855,30.762,-29.297,0
1539629463.293,20.996,14.648,24.414,34.180,-22.461,0
1539629463.297,20.020,25.879,29.297,25.879,23.926,0
1539629463.301,18.066,38.086,31.738,20.020,-11.230,0
1539629463.305,20.508,41.504,24.902,21.484,-3.418,0
1539629463.309,33.691,41.504,24.414,32.227,45.898,0
1539629463.313,33.203,41.992,32.715,36.133,52.246,0
1539629463.317,33.691,43.945,35.645,34.668,-25.879,0
1539629463.321,45.898,42.969,34.180,44.922,-17.578,0
1539629463.324,45.410,45.898,34.180,50.781,27.832,0
1539629463.328,54.199,54.199,44.922,48.828,-4.395,0
1539629463.332,59.082,61.035,49.316,49.805,22.461,0
1539629463.336,58.105,61.035,41.992,53.223,2.441,0
1539629463.340,62.988,50.781,41.504,51.270,1.465,0
1539629463.344,59.082,49.316,42.480,61.523,35.645,0
1539629463.348,56.641,56.641,38.086,66.406,45.410,0
1539629463.352,60.547,56.641,33.203,50.781,90.820,0
1539629463.356,49.316,61.035,42.480,50.781,88.379,0
1539629463.360,53.711,62.988,49.805,51.270,58.105,0
1539629463.364,58.105,62.012,49.316,41.504,51.758,0
1539629463.367,50.293,62.500,52.246,42.480,39.062,0
1539629463.371,57.129,68.848,62.012,39.062,58.105,0
1539629463.375,41.992,70.312,63.477,37.109,61.523,0
1539629463.379,41.016,63.477,52.246,45.898,28.809,0
1539629463.383,43.457,62.012,51.758,39.062,81.055,0
1539629463.387,34.668,68.848,48.828,31.250,77.148,0
1539629463.391,46.387,66.406,44.434,38.574,38.574,0
1539629463.395,44.434,59.570,47.852,49.316,41.504,0
1539629463.399,47.852,60.547,54.199,60.059,47.852,0
1539629463.403,64.453,59.082,56.641,65.918,-12.695,0
1539629463.407,65.918,61.523,55.664,61.523,-8.789,0
1539629463.410,64.941,68.848,55.664,54.688,39.062,0
1539629463.414,66.895,66.406,52.246,53.223,31.250,0
1539629463.418,63.477,70.312,46.875,52.734,-13.184,0
1539629463.422,61.035,63.965,46.387,58.594,-22.949,0
1539629463.426,65.918,54.199,45.898,58.105,41.016,0
1539629463.430,63.965,58.105,43.945,54.199,35.645,0
1539629463.434,62.500,45.898,37.109,50.293,20.508,0
1539629463.438,41.992,41.992,34.180,43.457,46.387,0
1539629463.442,26.367,42.480,35.645,29.785,75.195,0
1539629463.446,26.367,35.156,31.250,18.066,89.844,0
1539629463.449,21.973,28.809,24.902,24.414,80.566,0
1539629463.453,20.508,20.996,16.602,25.879,7.812,0
1539629463.457,20.020,25.879,13.184,20.996,15.137,0
1539629463.461,23.926,30.762,8.301,26.855,64.453,0
1539629463.465,29.785,28.809,7.324,32.227,71.777,0
1539629463.469,31.250,27.832,14.648,30.762,90.332,0
1539629463.473,20.020,26.855,19.043,27.832,32.227,0
1539629463.477,9.277,25.879,13.672,20.020,-15.625,0
1539629463.481,15.137,24.902,18.066,22.461,-8.301,0
1539629463.485,31.250,22.461,25.391,34.180,0.000,0
1539629463.489,33.203,21.973,19.531,37.598,13.184,0
1539629463.492,22.949,20.020,13.672,35.645,42.969,0
1539629463.496,26.367,20.996,14.160,31.250,49.316,0
1539629463.500,40.527,25.879,13.184,37.598,50.293,0
1539629463.504,49.805,22.949,12.207,44.434,58.105,0
1539629463.508,47.363,22.949,19.531,46.875,40.527,0
1539629463.512,42.969,21.973,20.508,54.199,25.391,0
1539629463.516,47.852,14.160,9.766,52.734,41.504,0
1539629463.520,57.617,16.602,12.695,47.363,25.391,0
1539629463.524,44.434,22.461,23.438,46.875,27.832,0
1539629463.528,28.320,22.949,23.438,45.410,12.207,0
1539629463.532,36.133,24.414,31.250,49.805,-0.977,0
1539629463.535,36.621,21.973,34.180,42.480,-3.418,0
1539629463.539,36.133,21.973,26.367,39.062,6.836,0
1539629463.543,36.621,21.973,25.391,42.969,54.688,0
1539629463.547,29.785,20.996,28.320,41.504,26.855,0
1539629463.551,29.297,20.020,30.762,46.875,18.066,0
1539629463.555,31.738,26.367,25.391,49.805,40.527,0
1539629463.559,34.668,32.715,24.902,55.176,83.008,0
1539629463.563,41.992,32.715,40.527,53.223,104.492,0
1539629463.567,45.898,31.738,39.062,41.992,28.320,0
1539629463.571,43.457,33.691,34.668,48.340,51.758,0
1539629463.574,52.734,43.457,47.852,61.523,85.938,0
1539629463.578,55.176,45.410,49.805,57.129,6.836,0
1539629463.582,55.176,46.387,42.480,50.293,-0.488,0
1539629463.586,62.988,53.223,43.457,56.641,56.641,0
1539629463.590,60.547,54.199,43.457,59.082,16.602,0
1539629463.594,60.547,49.805,41.016,60.547,10.742,0
1539629463.598,63.477,47.363,38.574,59.082,46.875,0
1539629463.602,63.477,54.199,42.969,54.199,77.148,0
1539629463.606,62.988,65.430,50.293,64.941,64.453,0
1539629463.610,52.734,59.082,48.828,66.895,11.230,0
1539629463.614,42.969,46.875,45.410,48.340,28.320,0
1539629463.617,46.387,49.316,45.898,43.945,66.406,0
1539629463.621,49.316,49.316,47.363,46.387,20.508,0
1539629463.625,42.969,47.363,42.480,41.504,54.688,0
1539629463.629,39.062,52.734,40.527,38.574,79.102,0
1539629463.633,41.992,51.758,45.410,47.852,41.016,0
1539629463.637,44.434,47.852,45.410,54.688,22.949,0
1539629463.641,44.922,51.270,40.527,45.898,53.711,0
1539629463.645,52.246,47.852,37.109,36.133,28.809,0
1539629463.649,58.105,40.039,41.504,37.598,-20.508,0
1539629463.653,51.758,43.945,52.246,41.992,-4.883,0
1539629463.657,48.828,50.293,48.828,43.945,-12.207,0
1539629463.660,56.152,40.527,41.504,46.875,21.484,0
1539629463.664,56.641,25.879,41.016,47.363,84.961,0
1539629463.668,54.688,32.227,36.133,47.852,48.340,0
1539629463.672,51.270,47.363,39.062,59.082,-10.254,0
1539629463.676,52.734,52.246,45.410,60.547,-3.906,0
1539629463.680,58.594,50.781,41.992,50.781,-23.438,0
1539629463.684,52.246,47.852,33.203,41.504,1.465,0
1539629463.688,40.039,46.875,43.945,42.480,76.172,0
1539629463.692,35.156,40.039,47.852,49.805,54.199,0
1539629463.696,41.504,34.180,41.504,54.688,32.715,0
1539629463.699,46.387,31.738,38.574,49.805,0.000,0
1539629463.703,34.668,40.527,30.273,42.969,-34.180,0
1539629463.707,36.621,47.363,39.062,47.363,14.648,0
1539629463.711,45.898,40.527,41.504,40.527,25.879,0
1539629463.715,32.227,35.645,32.227,37.109,4.395,0
1539629463.719,19.043,34.668,32.227,36.621,33.691,0
1539629463.723,21.973,41.016,30.273,32.715,18.555,0
1539629463.727,25.391,47.363,26.855,38.574,8.301,0
1539629463.731,28.809,41.992,29.785,33.203,77.148,0
1539629463.735,31.738,34.668,35.156,28.320,62.012,0
1539629463.739,33.203,34.668,33.691,31.738,14.648,0
1539629463.742,30.273,41.504,29.785,28.320,17.090,0
1539629463.746,35.645,40.527,32.227,37.598,4.883,0
1539629463.750,34.668,37.598,36.133,37.598,25.391,0
1539629463.754,28.809,32.227,36.133,27.344,95.703,0
1539629463.758,41.016,29.297,30.762,23.438,69.824,0
1539629463.762,31.250,33.203,29.297,23.926,15.625,0
1539629463.766,18.555,32.227,30.273,24.414,24.414,0
1539629463.770,24.902,34.180,30.273,27.832,12.695,0
1539629463.774,30.273,33.691,27.344,32.715,57.129,0
1539629463.778,22.461,35.156,24.902,26.367,80.078,0
1539629463.782,3.906,27.832,27.344,14.648,23.438,0
1539629463.785,-18.066,19.043,24.414,0.977,41.504,0
1539629463.789,-11.230,26.367,21.484,-10.742,56.152,0
1539629463.793,-3.906,32.227,27.832,-10.742,-18.066,0
1539629463.797,-25.879,30.273,32.227,-19.531,-20.020,0
1539629463.801,-23.438,31.738,28.320,-31.738,21.484,0
1539629463.805,-39.551,38.574,22.461,-37.109,3.906,0
1539629463.809,-49.805,37.109,29.785,-50.781,24.414,0
1539629463.813,-52.246,36.621,32.715,-59.082,65.430,0
1539629463.817,-68.359,36.621,30.762,-66.895,21.484,0
1539629463.821,-71.289,32.227,30.273,-68.359,-7.812,0
1539629463.824,-76.172,37.598,32.715,-77.637,23.926,0
1539629463.828,-91.309,37.598,33.203,-102.539,68.359,0
1539629463.832,-100.098,33.203,31.738,-112.305,76.172,0
1539629463.836,-101.562,38.574,33.691,-118.652,33.691,0
1539629463.840,-115.723,41.992,32.227,-124.023,11.719,0
1539629463.844,-117.676,40.039,29.297,-117.188,-8.301,0
1539629463.848,-116.699,36.621,29.297,-117.188,-14.160,0
1539629463.852,-120.117,38.574,30.273,-120.117,35.645,0
1539629463.856,-110.840,49.316,33.203,-121.094,38.574,0
1539629463.860,-118.164,46.875,37.109,-125.977,0.977,0
1539629463.864,-127.930,38.574,35.645,-128.418,15.625,0
1539629463.867,-119.629,41.504,30.762,-128.906,6.836,0
1539629463.871,-109.863,41.504,28.809,-122.070,-8.789,0
1539629463.875,-104.004,41.992,31.250,-111.816,-32.715,0
1539629463.879,-110.352,37.598,32.715,-110.352,-25.391,0
1539629463.883,-105.957,34.668,26.367,-105.469,32.227,0
1539629463.887,-94.238,37.598,26.855,-95.215,52.246,0
1539629463.891,-81.055,44.434,34.668,-99.609,62.988,0
1539629463.895,-75.195,45.898,40.039,-97.168,15.137,0
1539629463.899,-73.730,38.086,39.551,-78.613,17.578,0
1539629463.903,-69.824,40.039,32.715,-70.801,18.555,0
1539629463.907,-59.082,41.016,30.762,-63.965,10.254,0
1539629463.910,-53.223,32.715,31.250,-53.223,77.637,0
1539629463.914,-48.340,34.180,27.344,-37.109,84.961,0
1539629463.918,-28.320,41.016,23.438,-27.344,41.504,0
1539629463.922,-16.113,42.969,21.484,-20.996,58.105,0
1539629463.926,-5.859,35.645,25.879,-9.766,79.102,0
1539629463.930,5.371,26.855,27.832,2.930,64.453,0
1539629463.934,13.672,33.203,24.414,15.625,49.805,0
1539629463.938,23.438,35.156,26.367,34.180,47.363,0
1539629463.942,34.180,29.297,27.344,39.551,8.789,0
1539629463.946,36.621,28.320,24.414,43.457,52.734,0
1539629463.949,46.875,26.367,23.438,47.363,107.422,0
1539629463.953,54.688,21.484,26.855,47.363,45.410,0
1539629463.957,49.805,23.438,26.367,52.734,27.832,0
1539629463.961,55.176,24.902,23.438,57.129,42.480,0
1539629463.965,70.801,24.414,20.508,70.312,38.086,0
1539629463.969,81.055,28.809,21.973,79.590,54.199,0
1539629463.973,80.566,33.203,20.020,75.684,79.102,0
1539629463.977,74.707,28.320,17.090,74.707,32.715,0
1539629463.981,71.777,16.113,20.996,76.660,17.578,0
1539629463.985,69.336,19.531,15.137,66.406,29.297,0
1539629463.989,75.684,26.855,16.113,66.406,18.555,0
1539629463.992,75.684,29.785,20.996,71.289,22.461,0
1539629463.996,76.660,31.250,22.461,67.383,-28.320,0
1539629464.000,88.867,27.344,24.414,66.406,-33.203,0
1539629464.004,72.266,27.344,21.484,68.848,28.320,0
1539629464.008,64.941,31.250,20.508,76.660,64.453,0
1539629464.012,74.219,30.273,20.020,83.008,45.410,0
1539629464.016,63.477,27.832,18.555,77.637,54.688,0
1539629464.020,66.895,27.832,9.766,70.801,63.965,0
1539629464.024,65.430,30.273,11.719,72.266,64.453,0
1539629464.028,62.500,26.855,24.414,67.871,67.383,0
1539629464.032,68.359,19.531,25.879,63.477,-11.719,0
1539629464.035,71.777,25.879,20.996,60.547,-15.625,0
1539629464.039,72.754,31.738,19.043,58.105,37.598,0
1539629464.043,62.012,23.438,20.508,61.035,25.391,0
1539629464.047,48.340,22.949,18.555,56.641,48.340,0
1539629464.051,49.316,30.762,17.578,51.270,47.363,0
1539629464.055,47.852,36.133,17.578,39.551,9.766,0
1539629464.059,42.480,41.504,19.531,40.527,8.301,0
1539629464.063,30.273,44.434,22.949,34.180,38.574,0
1539629464.067,3.418,45.410,24.902,4.395,62.988,0
1539629464.071,2.930,55.664,22.461,0.977,24.902,0
1539629464.074,-7.324,55.664,22.461,-7.324,14.648,0
1539629464.078,-37.109,49.805,29.297,-33.203,44.922,0
1539629464.082,-60.547,51.758,32.715,-56.152,93.262,0
1539629464.086,-72.754,58.594,33.691,-75.195,87.891,0
1539629464.090,-91.309,67.383,26.367,-96.191,-6.836,0
1539629464.094,-107.910,59.082,23.926,-113.281,-25.879,0
1539629464.098,-107.422,55.176,31.250,-111.816,37.109,0
1539629464.102,-111.816,61.035,34.668,-110.840,59.082,0
1539629464.106,-123.047,48.340,32.227,-115.234,43.945,0
1539629464.110,-132.812,41.992,29.785,-121.582,37.598,0
1539629464.114,-131.348,47.363,31.738,-125.977,-5.859,0
1539629464.117,-138.672,44.434,30.762,-137.695,1.465,0
1539629464.121,-144.531,47.363,30.273,-145.020,42.480,0
1539629464.125,-143.066,45.410,35.645,-140.137,30.762,1
1539629464.129,-143.555,39.551,37.598,-140.137,15.137,0
1539629464.133,-136.230,43.945,38.574,-140.625,50.293,0
1539629464.137,-131.836,50.781,40.527,-133.301,61.523,0
1539629464.141,-131.836,50.293,38.574,-122.559,-10.742,0
1539629464.145,-126.465,41.504,29.785,-128.418,1.465,0
1539629464.149,-116.211,46.875,28.320,-126.465,44.922,0
1539629464.153,-116.699,46.875,33.691,-106.934,-20.508,0
1539629464.157,-123.535,37.598,28.809,-106.934,-21.973,0
1539629464.160,-121.582,45.898,22.949,-105.957,14.160,0
1539629464.164,-107.422,48.828,23.438,-99.609,6.348,0
1539629464.168,-89.844,47.852,28.809,-90.332,38.574,0
1539629464.172,-79.590,40.039,32.715,-79.102,65.918,0
1539629464.176,-71.777,35.156,29.785,-75.195,16.602,0
1539629464.180,-50.293,45.898,29.785,-57.129,0.000,0
1539629464.184,-40.527,36.133,30.273,-41.016,52.246,0
1539629464.188,-42.480,28.809,32.227,-33.691,71.777,0
1539629464.192,-31.738,32.715,29.297,-16.113,56.641,0
1539629464.196,-17.578,31.738,25.879,-3.418,59.082,0
1539629464.199,8.301,33.691,25.391,18.066,95.703,0
1539629464.203,26.367,28.320,20.020,38.086,23.438,0
1539629464.207,43.457,19.531,20.996,48.340,0.488,0
1539629464.211,68.848,15.625,22.949,60.059,64.453,0
1539629464.215,71.289,19.043,18.555,74.707,38.086,0
1539629464.219,75.195,18.555,16.113,81.543,37.109,0
1539629464.223,86.426,11.230,12.695,78.125,17.090,0
1539629464.227,90.820,8.301,-1.465,93.750,15.137,0
1539629464.231,100.586,4.883,-10.254,112.793,70.801,0
1539629464.235,103.027,2.441,-8.301,113.770,60.547,0
1539629464.239,110.840,3.418,-8.789,116.699,41.504,0
1539629464.242,129.883,2.930,-10.742,124.023,49.316,0
1539629464.246,134.766,-0.488,-7.324,128.906,40.527,0
1539629464.250,135.742,-2.441,-5.371,138.672,26.367,0
1539629464.254,145.996,-8.301,-9.766,142.090,59.082,0
1539629464.258,142.578,-9.766,-7.812,140.137,91.309,0
1539629464.262,127.930,-2.930,-5.859,143.555,50.781,0
1539629464.266,128.418,0.977,-3.418,141.113,1.953,0
1539629464.270,135.742,-3.418,0.977,138.184,36.621,0
1539629464.274,132.324,-10.254,0.000,141.113,38.086,0
1539629464.278,129.395,-10.254,-2.930,133.789,43.457,0
1539629464.282,134.277,-4.883,-3.906,130.859,59.082,0
1539629464.285,132.812,0.488,-1.953,145.996,5.859,0
1539629464.289,134.766,0.000,-1.953,143.066,49.316,0
1539629464.293,134.766,1.953,-10.254,135.742,17.578,0
1539629464.297,134.766,7.324,-8.301,135.254,3.418,0
1539629464.301,135.742,3.418,5.371,126.465,86.914,0
1539629464.305,135.254,-0.488,7.812,131.348,78.613,0
1539629464.309,130.859,-2.441,2.441,138.184,84.961,0
1539629464.313,128.418,0.488,0.000,133.301,37.109,0
1539629464.317,136.719,9.766,2.930,129.395,-3.418,0
1539629464.321,130.859,8.301,7.812,125.977,9.766,0
1539629464.324,117.188,7.812,8.301,121.582,12.207,0
1539629464.328,109.863,5.859,6.348,118.164,67.383,0
1539629464.332,108.398,-1.953,2.930,113.770,64.941,0
1539629464.336,110.840,5.371,7.812,102.539,10.742,0
1539629464.340,109.375,14.160,6.836,101.074,6.836,0
1539629464.344,104.980,13.184,2.930,100.098,-20.996,0
1539629464.348,104.004,4.395,12.207,92.773,-11.230,0
1539629464.352,97.656,2.441,15.625,99.121,79.102,0
1539629464.356,103.516,8.789,12.695,90.820,87.402,0
1539629464.360,100.586,12.695,10.742,77.148,-0.977,0
1539629464.364,81.543,11.719,9.766,81.543,-31.738,0
1539629464.367,82.031,7.324,9.277,82.031,20.996,0
1539629464.371,78.125,12.695,12.207,76.660,43.945,0
1539629464.375,77.637,14.160,11.719,78.613,40.039,0
1539629464.379,79.590,10.254,11.719,74.219,-18.066,0
1539629464.383,74.219,11.230,16.113,68.359,-12.695,0
1539629464.387,69.336,10.254,12.695,72.266,-8.789,0
1539629464.391,72.266,10.742,4.395,69.824,-7.812,0
1539629464.395,67.871,17.090,7.324,64.453,45.410,0
1539629464.399,65.918,22.949,15.137,73.242,73.242,0
1539629464.403,62.988,11.719,17.578,77.148,35.156,0
1539629464.407,55.176,-3.906,17.578,67.871,0.000,0
1539629464.410,58.105,-0.977,15.137,59.082,8.301,0
1539629464.414,54.199,10.254,17.578,51.270,-22.461,0
1539629464.418,49.316,20.996,21.973,50.293,-36.133,0
1539629464.422,47.852,21.484,17.090,54.688,8.301,0
1539629464.426,51.758,17.090,14.160,47.363,16.602,0
1539629464.430,48.340,23.438,11.230,41.504,-7.324,0
1539629464.434,35.645,19.531,8.789,43.457,-5.371,0
1539629464.438,34.668,18.066,12.207,41.992,-7.324,0
1539629464.442,39.551,27.344,21.973,42.480,-35.645,0
1539629464.446,46.875,24.902,18.555,41.016,12.207,0
1539629464.449,41.016,20.508,13.184,35.156,67.383,0
1539629464.453,40.039,19.531,19.531,39.062,3.418,0
1539629464.457,43.457,21.973,20.508,43.945,0.000,0
1539629464.461,43.945,21.973,21.973,46.875,31.250,0
1539629464.465,45.898,21.973,25.391,53.223,23.926,0
1539629464.469,50.293,24.902,23.438,43.945,50.293,0
1539629464.473,46.875,20.508,20.020,38.574,35.156,0
1539629464.477,37.598,15.625,20.508,43.457,-8.789,0
1539629464.481,51.270,20.508,25.879,36.621,14.160,0
1539629464.485,58.594,30.273,20.996,42.480,73.242,0
1539629464.489,43.945,31.738,18.555,50.781,41.504,0
1539629464.492,35.645,22.949,20.508,39.062,18.066,0
1539629464.496,34.668,20.508,17.090,28.320,21.484,0
1539629464.500,39.551,24.902,16.602,20.508,25.391,0
1539629464.504,39.062,19.043,17.578,24.414,55.664,0
1539629464.508,34.180,17.090,18.555,26.367,64.453,0
1539629464.512,39.062,20.508,13.672,25.391,32.227,0
1539629464.516,43.457,22.461,9.766,25.879,46.875,0
1539629464.520,42.480,25.391,14.160,20.508,27.832,0
1539629464.524,37.109,30.762,24.902,27.344,24.414,0
1539629464.528,35.645,36.133,21.484,28.809,86.914,0
1539629464.532,28.320,28.809,19.043,20.996,50.293,0
1539629464.535,29.297,30.762,21.973,18.555,24.902,0
1539629464.539,30.762,30.273,20.020,22.949,26.367,0
1539629464.543,31.250,20.996,23.438,25.391,19.531,0
1539629464.547,38.574,25.391,23.926,24.414,47.363,0
1539629464.551,41.992,29.297,26.855,25.391,63.477,0
1539629464.555,52.246,27.832,20.020,34.180,71.289,0
1539629464.559,42.480,30.273,17.578,35.156,39.062,0
1539629464.563,32.715,30.273,27.344,40.039,13.184,0
1539629464.567,33.691,23.438,25.391,36.621,16.113,0
1539629464.571,24.902,23.926,24.414,23.926,45.898,0
1539629464.574,33.203,35.645,24.902,28.320,64.941,0
1539629464.578,41.504,39.062,23.438,23.926,24.902,0
1539629464.582,24.414,34.180,20.996,14.160,14.160,0
1539629464.586,21.973,28.809,23.438,18.066,43.945,0
1539629464.590,37.598,28.320,26.855,17.090,43.945,0
1539629464.594,38.086,27.344,20.996,21.484,0.488,0
1539629464.598,30.762,27.832,15.625,24.902,0.000,0
1539629464.602,25.879,29.297,15.625,22.949,-13.184,0
1539629464.606,23.438,30.762,18.555,24.414,34.668,0
1539629464.610,25.879,32.227,22.949,21.973,81.543,0
1539629464.614,24.414,18.555,22.461,22.461,32.715,0
1539629464.617,25.391,12.695,20.020,24.902,20.020,0
1539629464.621,24.414,30.273,20.020,15.625,98.633,0
1539629464.625,20.996,34.668,20.996,19.043,71.289,0
1539629464.629,22.461,26.855,15.137,28.320,23.438,0
1539629464.633,33.203,24.902,14.160,21.973,67.871,0
1539629464.637,28.320,17.578,21.973,23.926,14.160,0
1539629464.641,26.367,16.602,20.508,32.715,20.508,0
1539629464.645,37.109,26.367,16.602,32.715,69.824,0
1539629464.649,30.762,36.621,24.414,35.645,20.508,0
1539629464.653,29.297,34.668,30.273,32.227,25.879,0
1539629464.657,27.832,29.297,28.320,29.297,46.387,0
1539629464.660,30.762,24.414,22.461,34.668,43.457,0
1539629464.664,30.273,18.555,18.555,28.809,62.500,0
1539629464.668,25.879,20.508,25.391,25.391,1.465,0
1539629464.672,28.809,22.949,25.391,29.297,-0.977,0
1539629464.676,17.090,20.020,24.414,23.926,40.527,0
1539629464.680,16.113,26.367,34.668,18.555,25.391,0
1539629464.684,29.785,38.086,35.156,25.391,-5.859,0
1539629464.688,22.949,37.598,21.973,23.438,20.996,0
1539629464.692,13.184,31.738,19.043,14.160,-12.207,0
1539629464.696,19.043,27.344,26.855,16.113,-6.348,0
1539629464.699,30.762,31.250,28.320,9.766,48.828,0
1539629464.703,28.320,34.668,29.785,11.719,64.453,0
1539629464.707,17.578,23.438,28.320,17.090,66.895,0
1539629464.711,14.160,22.949,24.414,13.672,86.426,0
1539629464.715,12.207,34.180,26.855,21.973,109.863,0
1539629464.719,13.672,26.855,23.438,21.484,33.203,0
1539629464.723,26.367,26.367,24.902,21.484,32.715,0
1539629464.727,26.855,30.762,29.785,23.438,81.055,0
1539629464.731,19.531,26.855,24.414,23.438,38.574,0
1539629464.735,28.809,35.156,17.090,26.855,-34.180,0
1539629464.739,28.809,34.668,20.508,29.297,1.465,0
1539629464.742,21.484,27.344,26.855,25.879,29.785,0
1539629464.746,20.020,22.461,26.367,29.297,3.906,0
1539629464.750,25.391,23.926,21.973,28.320,8.301,0
1539629464.754,24.414,26.855,23.438,20.996,16.602,0
1539629464.758,19.531,25.391,24.902,23.926,34.180,0
1539629464.762,22.949,30.762,21.973,22.461,30.273,0
1539629464.766,19.043,37.109,24.414,19.531,48.340,0
1539629464.770,20.996,39.062,29.785,18.555,71.289,0
1539629464.774,25.391,37.598,26.855,27.344,52.734,0
1539629464.778,32.715,37.109,21.484,38.086,81.055,0
1539629464.782,40.527,37.598,19.531,33.691,48.340,0
1539629464.785,28.320,34.668,22.949,10.742,-0.488,0
1539629464.789,20.508,36.133,22.461,0.977,12.207,0
1539629464.793,19.043,30.273,15.625,7.812,54.199,0
1539629464.797,13.184,27.832,21.973,17.090,61.523,0
1539629464.801,8.301,38.086,33.691,5.371,61.035,0
1539629464.805,10.742,45.410,41.016,0.000,45.898,0
1539629464.809,22.461,37.109,48.340,16.602,33.691,0
1539629464.813,26.855,41.992,49.805,24.902,39.551,0
1539629464.817,30.762,57.129,49.805,30.273,-0.977,0
1539629464.821,40.527,52.734,53.223,36.133,18.555,0
1539629464.824,48.828,51.758,58.105,44.434,58.105,0
1539629464.828,53.711,56.152,57.129,50.293,65.918,0
1539629464.832,66.406,58.105,55.176,47.363,25.879,0
1539629464.836,65.918,62.012,58.105,51.270,7.324,0
1539629464.840,51.270,53.711,57.129,53.711,20.020,0
1539629464.844,54.199,50.781,51.758,46.387,17.578,0
1539629464.848,48.828,55.664,49.316,45.898,51.270,0
1539629464.852,45.898,54.688,49.805,46.875,72.754,0
1539629464.856,59.570,54.688,49.316,47.852,38.574,0
1539629464.860,64.941,52.734,50.781,43.945,-4.883,0
1539629464.864,48.828,58.105,53.711,40.527,-5.371,0
1539629464.867,48.828,59.082,53.711,47.852,53.223,0
1539629464.871,59.570,60.547,52.734,50.293,61.523,0
1539629464.875,61.035,72.754,58.594,55.176,-36.621,0
1539629464.879,66.895,67.871,64.941,52.246,0.000,0
1539629464.883,65.918,63.477,65.430,51.758,51.758,0
1539629464.887,68.359,70.801,63.477,64.941,68.359,0
1539629464.891,63.965,71.289,62.988,63.965,53.711,0
1539629464.895,53.711,62.988,63.477,51.270,2.930,0
1539629464.899,54.199,58.594,58.594,48.828,58.594,0
1539629464.903,47.852,55.664,46.875,51.758,43.457,0
1539629464.907,51.758,49.316,37.109,51.270,21.973,0
1539629464.910,56.152,45.898,43.457,62.012,33.203,0
1539629464.914,49.316,45.898,49.805,63.477,21.484,0
1539629464.918,41.504,48.828,47.852,45.410,94.238,0
1539629464.922,38.086,44.434,43.457,38.574,73.730,0
1539629464.926,39.062,48.828,45.410,41.016,44.434,0
1539629464.930,45.898,57.129,42.969,48.340,57.129,0
1539629464.934,49.316,51.758,43.945,51.270,24.902,0
1539629464.938,41.016,47.363,52.734,47.363,58.105,0
1539629464.942,43.945,44.434,45.410,47.852,55.664,0
1539629464.946,46.875,38.574,39.062,50.781,27.344,0
1539629464.949,48.828,43.457,39.062,45.898,-30.273,0
1539629464.953,45.410,47.363,32.715,41.016,-15.625,0
1539629464.957,38.086,38.574,34.180,37.109,45.898,0
1539629464.961,32.227,28.809,35.156,28.320,12.695,0
1539629464.965,23.438,33.691,30.273,26.367,31.738,0
1539629464.969,30.762,41.992,28.320,36.621,26.855,0
1539629464.973,42.969,40.527,30.762,41.016,50.781,0
1539629464.977,33.203,37.598,33.691,45.410,36.621,0
1539629464.981,30.762,33.203,31.738,42.969,-0.488,0
1539629464.985,35.156,30.273,29.297,36.621,53.223,0
1539629464.989,30.273,30.762,21.973,32.227,34.668,0
1539629464.992,27.832,32.227,20.996,29.297,17.090,0
1539629464.996,20.996,28.320,24.902,28.809,19.531,0
1539629465.000,20.508,29.297,22.461,28.320,39.062,0
1539629465.004,23.926,37.109,22.461,31.250,48.828,0
1539629465.008,32.715,37.598,20.020,34.180,20.020,0
1539629465.012,35.156,26.855,12.695,35.645,39.062,0
1539629465.016,26.855,25.879,20.508,33.691,59.570,0
1539629465.020,26.855,39.551,28.809,27.344,49.805,0
1539629465.024,32.227,45.410,29.785,29.297,65.918,0
1539629465.028,29.785,39.062,26.855,28.809,24.902,0
1539629465.032,19.531,38.574,23.926,20.996,-20.996,0
1539629465.035,25.391,39.062,26.367,22.461,35.156,0
1539629465.039,33.203,30.273,33.203,27.344,15.137,0
1539629465.043,28.320,31.738,34.668,28.809,-33.203,0
1539629465.047,25.391,41.016,25.391,31.250,8.301,0
1539629465.051,37.109,45.410,25.879,33.691,91.309,0
1539629465.055,39.551,37.598,35.645,30.762,85.449,0
1539629465.059,41.504,33.691,42.480,40.527,62.012,0
1539629465.063,53.223,42.969,44.434,50.293,63.965,0
1539629465.067,51.758,50.293,40.527,49.805,65.918,0
1539629465.071,55.176,47.852,44.922,56.152,70.312,0
1539629465.074,48.340,44.922,51.270,51.758,28.320,0
1539629465.078,39.551,44.922,47.852,38.086,4.395,0
1539629465.082,47.852,40.527,35.156,35.645,9.766,0
1539629465.086,41.016,36.621,23.926,35.645,41.016,0
1539629465.090,21.973,39.551,25.391,26.367,41.992,0
1539629465.094,23.438,34.668,27.344,17.090,29.297,0
1539629465.098,31.250,16.113,21.973,13.672,59.570,0
1539629465.102,23.438,16.602,18.066,18.066,64.453,0
1539629465.106,20.996,23.926,17.090,19.531,20.508,0
1539629465.110,18.555,23.438,15.625,13.184,39.062,0
1539629465.114,19.531,20.508,11.230,13.184,32.715,0
1539629465.117,22.949,21.973,9.766,13.184,-11.230,0
1539629465.121,24.414,24.414,14.160,14.648,7.812,0
1539629465.125,24.902,21.973,20.508,15.137,72.266,0
1539629465.129,19.531,25.879,23.926,21.973,52.246,0
1539629465.133,19.531,26.855,21.484,24.414,8.789,0
1539629465.137,26.855,20.996,23.926,31.738,-20.020,0
1539629465.141,31.250,20.508,22.949,37.109,-22.949,0
1539629465.145,21.973,20.020,20.020,32.715,15.625,0
1539629465.149,25.879,16.113,22.461,32.715,31.738,0
1539629465.153,28.320,15.137,20.508,29.297,28.809,0
1539629465.157,32.715,26.855,15.137,23.926,41.016,0
1539629465.160,34.180,27.344,13.672,26.367,41.992,0
1539629465.164,18.555,11.719,20.508,36.133,41.992,0
1539629465.168,29.297,8.789,22.949,36.621,52.734,0
1539629465.172,27.344,14.648,18.066,27.344,8.789,0
1539629465.176,11.230,15.137,14.648,21.484,-18.066,0
1539629465.180,12.207,17.090,10.742,19.043,7.324,0
1539629465.184,18.555,18.555,2.930,18.555,43.945,0
1539629465.188,18.066,22.949,2.930,19.043,61.035,0
1539629465.192,11.719,26.855,4.395,17.090,30.762,0
1539629465.196,15.137,16.113,6.348,12.695,18.066,0
1539629465.199,17.090,17.090,14.648,9.766,41.504,0
1539629465.203,18.555,13.672,14.160,8.301,26.367,0
1539629465.207,31.250,6.348,17.090,9.766,24.414,0
1539629465.211,27.344,16.602,18.066,9.277,13.184,0
1539629465.215,2.441,26.367,11.230,12.207,-21.973,0
1539629465.219,6.348,28.320,5.371,18.066,-12.207,0
1539629465.223,16.113,20.020,7.324,18.066,105.957,0
1539629465.227,11.230,20.996,10.742,17.578,115.723,0
1539629465.231,14.648,24.902,9.766,19.043,49.805,0
1539629465.235,20.020,22.461,13.672,14.648,62.988,0
1539629465.239,23.438,21.973,23.438,18.555,18.066,0
1539629465.242,26.367,12.207,24.902,25.391,11.719,0
1539629465.246,23.926,7.324,22.949,23.926,0.488,0
1539629465.250,18.066,18.555,20.020,20.996,-54.199,0
1539629465.254,20.020,27.832,18.066,23.926,-57.129,0
1539629465.258,20.020,24.902,20.020,27.832,-80.078,0
1539629465.262,11.719,17.578,19.531,21.484,-38.086,0
1539629465.266,10.254,21.484,17.090,20.996,15.625,0
1539629465.270,12.207,18.066,16.602,18.066,-1.953,0
1539629465.274,17.090,18.066,20.996,19.043,-22.461,0
1539629465.278,17.090,23.926,30.273,27.344,-8.301,0
1539629465.282,20.020,20.020,29.785,26.855,38.574,0
1539629465.285,21.973,17.578,22.949,20.996,26.367,0
1539629465.289,18.066,15.625,21.973,20.020,10.742,0
1539629465.293,13.184,11.719,26.367,26.367,56.152,0
1539629465.297,32.227,21.484,24.414,31.250,50.781,0
1539629465.301,35.645,23.438,20.996,30.273,75.684,0
1539629465.305,21.484,17.090,22.949,30.762,70.801,0
1539629465.309,21.484,24.414,20.508,26.855,47.852,0
1539629465.313,19.043,20.996,21.484,29.785,17.090,0
1539629465.317,18.555,17.578,22.461,33.691,0.000,0
1539629465.321,21.973,20.996,18.555,24.902,-1.953,0
1539629465.324,33.203,22.461,16.113,16.113,-22.461,0
1539629465.328,19.531,19.043,16.602,18.066,26.855,0
1539629465.332,8.301,23.438,24.902,23.926,71.777,0
1539629465.336,15.137,31.250,21.484,28.320,59.570,0
1539629465.340,17.578,27.832,15.625,26.855,49.805,0
1539629465.344,18.066,23.926,21.484,23.926,20.996,0
1539629465.348,21.973,27.832,23.438,24.902,30.273,0
1539629465.352,17.578,27.832,21.973,24.902,58.105,0
1539629465.356,14.648,29.785,20.020,20.996,47.363,0
1539629465.360,13.672,26.367,17.578,18.555,83.984,0
1539629465.364,15.625,23.438,17.578,17.578,19.043,0
1539629465.367,19.043,25.879,19.531,27.344,-28.320,0
1539629465.371,10.254,27.832,17.090,30.762,33.691,0
1539629465.375,-0.488,25.391,13.672,14.648,86.426,0
1539629465.379,8.301,26.367,14.648,13.672,93.262,0
1539629465.383,29.297,28.320,20.996,29.785,71.777,0
1539629465.387,37.598,25.879,24.414,36.621,61.035,0
1539629465.391,31.250,26.855,17.578,30.762,62.012,0
1539629465.395,21.484,35.156,15.625,22.461,42.480,0
1539629465.399,16.602,35.156,22.461,21.973,54.199,0
1539629465.403,23.438,30.762,27.832,34.668,36.621,0
1539629465.407,30.273,33.203,33.203,38.086,2.441,0
1539629465.410,38.574,37.109,27.344,35.156,41.504,0
1539629465.414,34.668,38.574,23.926,34.180,78.125,0
1539629465.418,30.762,35.156,23.926,34.668,68.848,0
1539629465.422,42.480,32.227,22.949,41.992,54.199,0
1539629465.426,40.039,36.133,27.344,41.504,0.977,0
1539629465.430,38.574,30.273,23.438,37.109,47.852,1
1539629465.434,38.574,26.855,19.043,39.062,62.500,0
1539629465.438,39.551,31.738,29.297,51.270,34.180,0
1539629465.442,44.434,40.527,41.016,58.105,43.457,0
1539629465.446,46.875,47.852,43.945,55.176,12.207,0
1539629465.449,47.852,45.410,47.363,61.035,-5.859,0
1539629465.453,57.617,47.363,50.781,56.641,33.203,0
1539629465.457,71.777,62.012,53.223,59.570,89.844,0
1539629465.461,75.195,63.477,51.270,70.312,61.035,0
1539629465.465,70.801,50.781,45.410,75.195,47.852,0
1539629465.469,64.453,53.711,38.574,65.430,82.031,0
1539629465.473,58.594,63.965,38.574,49.316,61.523,0
1539629465.477,63.965,63.477,54.199,52.246,26.367,0
1539629465.481,72.754,48.340,53.711,67.871,42.969,0
1539629465.485,64.453,48.340,46.387,71.777,29.297,0
1539629465.489,61.523,51.758,46.387,63.477,39.062,0
1539629465.492,63.965,47.363,41.992,60.059,65.918,0
1539629465.496,56.641,49.805,36.621,57.129,61.523,0
1539629465.500,54.199,54.688,35.645,60.059,41.992,0
1539629465.504,56.641,51.270,32.227,56.641,56.152,0
1539629465.508,49.316,47.363,38.574,55.176,26.855,0
1539629465.512,48.340,44.434,37.109,52.734,13.184,0
1539629465.516,44.922,45.898,33.203,42.969,32.715,0
1539629465.520,43.945,53.223,37.598,45.898,-4.883,0
1539629465.524,54.199,56.641,40.039,56.641,-36.621,0
1539629465.528,48.340,52.734,38.086,55.176,-15.625,0
1539629465.532,43.457,50.293,37.109,50.293,22.949,0
1539629465.535,46.875,49.316,32.715,52.734,52.246,0
1539629465.539,40.039,45.410,38.086,56.641,114.258,0
1539629465.543,42.969,44.922,41.992,56.641,61.035,0
1539629465.547,48.340,47.363,34.180,50.293,-2.441,0
1539629465.551,40.527,42.969,34.180,35.645,20.020,0
1539629465.555,34.180,39.551,31.738,27.832,42.480,0
1539629465.559,39.551,42.969,23.438,25.879,41.992,0
1539629465.563,43.945,39.551,24.414,30.273,73.242,0
1539629465.567,33.691,31.738,32.715,36.621,52.246,0
1539629465.571,32.715,37.598,29.297,37.109,-1.465,0
1539629465.574,42.969,38.086,29.785,42.969,19.043,0
1539629465.578,37.598,30.762,38.574,44.922,21.484,0
1539629465.582,45.898,32.715,38.574,44.922,71.777,0
1539629465.586,48.828,44.434,37.109,54.688,58.594,0
1539629465.590,37.109,48.828,37.109,54.688,13.672,0
1539629465.594,39.062,46.387,30.762,41.992,20.020,0
1539629465.598,28.320,41.504,27.832,40.039,24.414,0
1539629465.602,22.461,35.645,29.297,36.133,54.199,0
1539629465.606,25.391,34.668,32.715,37.109,13.184,0
1539629465.610,29.297,42.480,31.250,36.621,14.648,0
1539629465.614,30.762,43.457,27.344,28.809,61.523,0
1539629465.617,20.996,35.156,24.902,35.156,45.410,0
1539629465.621,17.090,35.156,22.461,38.574,14.160,0
1539629465.625,29.785,36.133,23.438,35.156,-39.062,0
1539629465.629,24.902,32.227,20.020,31.250,-72.266,0
1539629465.633,14.160,21.973,22.949,24.414,-19.043,0
1539629465.637,20.020,21.484,22.461,23.926,29.785,0
1539629465.641,25.879,25.391,20.508,27.344,29.297,0
1539629465.645,21.973,20.996,20.020,32.227,9.766,0
1539629465.649,20.996,26.367,17.578,33.203,61.035,0
1539629465.653,20.996,29.297,18.555,20.508,39.062,0
1539629465.657,17.090,25.391,14.648,16.113,23.926,0
1539629465.660,13.672,22.949,15.625,23.438,88.867,0
1539629465.664,20.508,22.461,20.508,25.879,53.711,0
1539629465.668,29.297,20.508,16.113,19.531,3.418,0
1539629465.672,25.879,10.742,13.184,25.879,3.418,0
1539629465.676,24.902,14.160,16.602,27.344,38.574,0
1539629465.680,26.367,28.320,12.695,22.461,17.090,0
1539629465.684,27.832,31.738,13.184,24.414,-23.438,0
1539629465.688,29.297,29.785,20.996,27.832,-4.883,0
1539629465.692,24.414,21.973,24.902,28.320,15.137,0
1539629465.696,20.508,19.043,22.461,17.090,35.645,0
1539629465.699,13.184,25.879,16.113,8.789,7.812,0
1539629465.703,13.672,14.648,16.113,6.836,34.668,0
1539629465.707,15.625,9.277,21.973,15.625,160.645,0
1539629465.711,11.719,20.508,13.672,16.602,120.117,0
1539629465.715,19.531,29.297,8.789,15.137,32.227,0
1539629465.719,16.113,31.738,17.090,16.602,30.762,0
1539629465.723,8.301,29.297,15.137,20.508,17.090,0
1539629465.727,7.324,22.949,13.184,29.297,4.395,0
1539629465.731,15.137,22.461,14.648,18.066,5.371,0
1539629465.735,17.578,28.809,16.602,8.301,53.711,0
1539629465.739,20.996,27.832,15.137,8.301,42.969,0
1539629465.742,23.438,24.414,17.578,14.648,27.344,0
1539629465.746,8.789,24.414,20.996,19.043,79.102,0
1539629465.750,4.883,19.531,17.578,20.020,99.121,0
1539629465.754,17.090,20.020,20.508,17.090,57.617,0
1539629465.758,19.043,20.508,20.996,11.230,46.875,0
1539629465.762,9.277,24.902,20.996,15.137,39.551,0
1539629465.766,16.602,24.414,18.555,15.137,99.121,0
1539629465.770,29.297,20.996,17.578,14.160,102.051,0
1539629465.774,23.926,29.297,21.973,21.484,23.438,0
1539629465.778,27.832,29.297,22.949,33.203,50.293,0
1539629465.782,32.715,32.715,20.508,34.180,69.336,0
1539629465.785,29.785,33.203,13.672,20.020,3.906,0
1539629465.789,29.297,19.043,15.625,11.719,9.277,0
1539629465.793,22.949,22.461,22.461,11.719,45.410,0
1539629465.797,11.230,30.273,20.508,11.719,23.438,0
1539629465.801,18.066,30.762,13.672,13.184,-1.465,0
1539629465.805,29.297,28.320,15.625,15.625,1.953,0
1539629465.809,23.438,31.250,19.043,20.020,25.391,0
1539629465.813,23.438,33.691,22.949,25.879,50.293,0
1539629465.817,30.762,27.344,22.461,29.297,45.410,0
1539629465.821,32.227,29.297,20.020,29.297,45.898,0
1539629465.824,32.227,33.691,22.461,30.273,59.082,0
1539629465.828,30.762,28.320,24.902,29.785,55.664,0
1539629465.832,19.531,23.438,24.414,20.020,19.043,0
1539629465.836,21.484,20.996,21.484,23.438,-0.977,0
1539629465.840,25.879,28.320,19.043,33.203,-20.508,0
1539629465.844,22.949,28.809,15.137,21.973,18.066,0
1539629465.848,18.555,29.297,15.137,8.789,48.828,0
1539629465.852,28.809,27.344,20.020,12.695,22.461,0
1539629465.856,36.621,27.344,24.414,21.484,40.527,0
1539629465.860,27.832,33.203,23.438,24.902,61.523,0
1539629465.864,40.527,34.668,22.461,29.785,37.109,0
1539629465.867,36.133,31.738,20.020,27.832,-47.363,0
1539629465.871,29.297,34.180,22.461,29.297,-42.969,0
1539629465.875,31.250,31.738,24.414,25.391,11.230,0
1539629465.879,25.879,31.250,18.066,18.555,9.766,0
1539629465.883,37.109,36.133,24.902,27.832,7.324,0
1539629465.887,38.574,33.691,30.762,38.086,26.855,0
1539629465.891,29.297,31.250,26.367,33.691,20.508,0
1539629465.895,22.461,27.832,27.832,27.344,63.477,0
1539629465.899,30.273,31.738,27.832,36.621,83.008,0
1539629465.903,37.598,35.645,20.996,33.203,53.711,0
1539629465.907,26.367,31.250,20.020,26.367,60.547,0
1539629465.910,21.484,28.320,23.926,31.738,48.828,0
1539629465.914,30.762,32.227,29.297,33.691,64.941,0
1539629465.918,36.133,30.762,26.855,31.738,50.781,0
1539629465.922,36.133,25.879,22.949,31.738,53.223,0
1539629465.926,23.926,23.438,23.926,31.250,39.551,0
1539629465.930,24.414,21.484,24.902,29.785,-18.555,0
1539629465.934,26.367,24.902,24.902,35.645,1.953,0
1539629465.938,23.926,31.738,20.996,38.086,16.113,0
1539629465.942,32.715,31.250,22.949,31.738,-15.137,0
1539629465.946,34.668,37.598,26.367,36.133,18.555,0
1539629465.949,26.855,35.156,24.902,34.180,59.570,0
1539629465.953,28.809,28.320,28.809,28.320,87.402,0
1539629465.957,30.762,34.180,30.273,36.621,52.734,0
1539629465.961,26.367,31.250,29.785,44.922,0.488,0
1539629465.965,31.738,21.484,31.250,40.039,50.293,0
1539629465.969,36.621,24.902,28.809,29.785,59.082,0
1539629465.973,31.738,38.574,25.391,27.344,32.715,0
1539629465.977,26.855,39.551,22.949,24.902,21.484,0
1539629465.981,28.809,42.480,23.438,34.668,-11.719,0
1539629465.985,26.367,41.504,28.809,28.809,12.695,0
1539629465.989,24.414,31.250,33.691,27.344,1.465,0
1539629465.992,29.297,30.273,25.391,36.133,-20.996,0
1539629465.996,27.832,35.156,18.555,24.902,29.785,0
1539629466.000,23.438,41.504,22.949,20.508,19.043,0
1539629466.004,21.484,46.875,25.879,25.879,5.371,0
1539629466.008,31.738,40.527,27.344,23.926,12.695,0
1539629466.012,36.621,34.668,29.785,20.996,20.508,0
1539629466.016,27.344,38.574,29.785,23.438,9.277,0
1539629466.020,17.090,39.551,24.902,24.902,13.672,0
1539629466.024,17.578,34.668,29.297,26.855,19.531,0
1539629466.028,20.020,37.109,33.691,28.320,28.809,0
1539629466.032,16.602,40.039,24.414,20.996,59.082,0
1539629466.035,22.949,35.156,17.578,17.090,73.242,0
1539629466.039,29.785,32.715,25.879,17.578,59.082,0
1539629466.043,28.809,32.715,35.645,11.230,6.836,0
1539629466.047,22.949,31.250,27.832,2.930,-2.441,0
1539629466.051,12.695,32.227,23.438,12.207,-21.484,0
1539629466.055,5.859,30.762,21.484,16.602,-32.715,0
1539629466.059,9.766,31.738,23.926,12.695,5.859,0
1539629466.063,15.625,32.227,35.645,22.461,53.223,0
1539629466.067,19.531,26.367,31.250,24.902,71.289,0
1539629466.071,22.949,30.273,26.855,26.367,42.480,0
1539629466.074,27.344,33.691,32.715,23.438,18.066,0
1539629466.078,22.461,31.250,29.297,22.461,57.129,0
1539629466.082,33.203,34.180,27.344,28.809,71.777,0
1539629466.086,35.645,35.645,28.320,25.879,41.016,0
1539629466.090,29.785,27.832,30.273,22.461,9.277,0
1539629466.094,27.832,23.438,29.785,22.461,-0.488,0
1539629466.098,17.090,28.809,27.344,19.043,-6.836,0
1539629466.102,19.531,40.039,30.762,20.020,41.992,0
1539629466.106,23.438,37.598,29.785,22.461,60.059,0
1539629466.110,29.297,28.809,24.902,28.809,37.109,0
1539629466.114,37.109,31.738,20.020,32.715,15.625,0
1539629466.117,31.738,32.715,23.438,30.273,29.297,0
1539629466.121,27.832,19.043,25.879,27.832,66.406,0
1539629466.125,42.480,21.973,24.902,33.203,106.445,0
1539629466.129,39.062,29.297,31.738,42.969,74.707,0
1539629466.133,28.809,25.391,33.203,34.180,85.938,0
1539629466.137,31.738,32.227,28.809,22.949,84.961,0
1539629466.141,12.207,29.785,23.926,24.902,7.812,0
1539629466.145,13.184,19.043,25.879,26.855,35.156,0
1539629466.149,21.973,18.555,31.738,20.996,53.711,0
1539629466.153,13.672,19.531,25.391,19.043,63.965,0
1539629466.157,20.508,19.531,21.973,20.020,71.289,0
1539629466.160,20.508,19.531,27.344,23.926,45.898,0
1539629466.164,24.902,16.602,30.762,29.785,68.848,0
1539629466.168,31.250,21.973,28.320,32.227,50.781,0
1539629466.172,23.438,24.902,26.367,26.855,30.762,0
1539629466.176,24.902,23.926,20.996,29.297,16.113,0
1539629466.180,21.973,27.832,20.508,33.691,27.344,0
1539629466.184,20.020,16.602,18.066,25.879,52.246,0
1539629466.188,30.762,20.996,18.555,20.020,63.965,0
1539629466.192,33.203,34.180,19.531,18.555,19.531,0
1539629466.196,21.484,24.414,22.949,25.879,-20.508,0
1539629466.199,19.531,15.137,25.879,27.344,-12.207,0
1539629466.203,28.809,19.531,21.484,25.391,34.180,0
1539629466.207,21.973,23.438,19.043,27.832,111.328,0
1539629466.211,12.695,31.250,21.973,16.602,86.426,0
1539629466.215,17.090,33.203,21.973,18.555,37.598,0
1539629466.219,18.066,28.809,14.160,20.996,8.301,0
1539629466.223,20.020,33.691,16.113,14.160,15.625,0
1539629466.227,24.414,32.715,29.785,25.391,47.852,0
1539629466.231,29.297,23.438,32.227,29.297,21.484,0
1539629466.235,39.062,27.344,30.273,20.508,32.227,0
1539629466.239,32.715,28.320,27.344,20.020,46.387,0
1539629466.242,21.973,13.672,26.367,23.926,20.020,0
1539629466.246,24.414,11.719,25.879,30.273,-13.672,0
1539629466.250,31.738,26.855,20.996,30.762,10.742,0
1539629466.254,43.457,33.203,15.137,25.391,49.805,0
1539629466.258,35.645,35.645,15.137,31.250,41.992,0
1539629466.262,20.996,24.414,20.996,26.367,18.555,0
1539629466.266,23.926,16.602,24.414,17.090,4.395,0
1539629466.270,23.438,21.973,22.461,14.160,-40.039,0
1539629466.274,22.461,24.902,21.973,20.508,-14.160,0
1539629466.278,21.484,22.949,21.484,24.414,56.152,0
1539629466.282,19.043,19.043,16.113,21.484,4.883,0
1539629466.285,16.602,23.926,11.230,20.508,25.391,0
1539629466.289,19.043,29.785,13.184,22.949,42.969,0
1539629466.293,14.160,25.391,17.578,21.973,43.457,0
1539629466.297,11.230,21.484,19.531,20.996,35.645,0
1539629466.301,24.902,27.344,22.461,18.555,-40.039,0
1539629466.305,24.902,27.832,25.879,16.602,10.254,0
1539629466.309,22.949,20.020,23.926,18.555,46.875,0
1539629466.313,23.926,23.438,21.484,18.066,36.621,0
1539629466.317,20.996,23.438,16.113,29.785,12.695,0
1539629466.321,21.484,23.438,15.625,30.762,20.996,0
1539629466.324,23.438,30.273,24.414,24.902,24.414,0
1539629466.328,20.508,24.414,20.996,25.391,3.418,0
1539629466.332,29.297,21.973,17.090,31.250,38.574,0
1539629466.336,38.574,20.508,20.508,31.250,65.918,0
1539629466.340,23.926,20.508,24.414,26.367,58.105,0
1539629466.344,14.160,26.855,26.367,27.344,22.949,0
1539629466.348,24.414,31.250,25.391,26.855,60.547,0
1539629466.352,24.414,35.156,16.602,27.832,59.082,0
1539629466.356,28.809,36.133,13.184,23.438,2.930,0
1539629466.360,29.785,36.133,22.461,28.809,10.742,0
1539629466.364,29.297,35.156,24.414,32.715,21.484,0
1539629466.367,35.156,22.461,19.043,20.508,-7.812,0
1539629466.371,38.086,21.484,15.625,20.996,-48.828,0
1539629466.375,29.785,31.250,15.137,20.996,15.137,0
1539629466.379,26.367,27.832,18.066,17.090,34.180,0
1539629466.383,28.809,20.020,21.484,20.508,0.000,0
1539629466.387,17.578,27.832,14.648,23.926,25.391,0
1539629466.391,22.949,26.367,15.137,22.461,32.715,0
1539629466.395,21.484,23.926,20.996,20.508,20.020,0
1539629466.399,16.113,41.016,26.367,22.949,62.012,0
1539629466.403,21.484,40.527,27.344,24.902,90.332,0
1539629466.407,20.508,23.926,20.508,26.367,35.645,0
1539629466.410,21.484,21.973,19.043,19.043,25.391,0
1539629466.414,24.414,18.555,18.555,12.695,30.762,0
1539629466.418,24.902,14.648,16.602,11.719,30.762,0
1539629466.422,10.742,20.020,21.484,10.742,30.762,0
1539629466.426,9.277,24.902,22.949,16.602,11.230,0
1539629466.430,19.043,29.785,23.926,20.996,6.348,0
1539629466.434,26.367,24.414,25.391,24.902,-6.348,0
1539629466.438,24.902,27.344,23.926,29.297,-40.039,0
1539629466.442,24.902,25.391,23.926,26.367,10.254,0
1539629466.446,21.973,17.090,24.902,27.344,12.207,0
1539629466.449,25.879,15.625,17.090,20.020,0.000,0
1539629466.453,34.180,15.625,11.230,16.113,91.309,0
1539629466.457,28.809,21.484,22.461,32.227,63.965,0
1539629466.461,16.602,30.762,24.414,33.203,111.328,0
1539629466.465,14.160,34.180,19.043,23.926,129.883,0
1539629466.469,22.461,28.809,20.996,25.879,28.809,0
1539629466.473,22.949,24.902,24.414,27.344,34.668,0
1539629466.477,29.785,29.297,23.926,25.879,65.430,0
1539629466.481,41.504,33.691,28.320,32.227,62.988,0
1539629466.485,34.180,28.809,18.066,23.926,41.992,0
1539629466.489,24.414,17.090,11.719,20.996,63.965,0
1539629466.492,31.738,18.555,22.949,23.438,47.363,0
1539629466.496,25.879,23.926,26.855,11.719,-13.672,0
1539629466.500,15.137,20.020,23.438,11.230,-12.695,0
1539629466.504,27.832,29.297,20.996,15.625,11.719,0
1539629466.508,30.273,39.551,25.391,20.020,13.672,0
1539629466.512,16.602,31.250,25.391,15.625,-13.672,0
1539629466.516,22.949,29.785,23.926,21.973,11.719,0
1539629466.520,32.715,32.715,19.043,24.902,12.207,0
1539629466.524,25.879,32.715,11.230,19.043,11.230,0
1539629466.528,20.996,32.715,19.531,19.531,31.250,0
1539629466.532,15.625,23.438,25.879,16.602,-3.906,0
1539629466.535,17.578,22.949,21.484,26.855,22.461,0
1539629466.539,25.391,19.043,20.996,21.973,82.520,0
1539629466.543,27.344,18.066,25.391,15.137,55.176,0
1539629466.547,31.738,26.367,29.297,24.414,20.020,0
1539629466.551,31.250,29.785,22.461,13.672,39.062,0
1539629466.555,22.461,32.227,18.555,12.207,64.941,0
1539629466.559,31.250,30.762,27.832,20.996,37.598,0
1539629466.563,36.621,27.832,29.297,20.996,44.434,0
1539629466.567,28.320,35.156,26.855,26.855,80.566,0
1539629466.571,25.879,38.574,28.809,34.668,10.742,0
1539629466.574,33.203,33.691,25.391,43.457,23.926,0
1539629466.578,30.273,26.855,20.508,36.621,79.590,0
1539629466.582,24.414,21.484,20.020,29.785,62.012,0
1539629466.586,36.621,30.273,19.043,28.809,64.453,0
1539629466.590,35.156,31.250,21.973,24.902,30.762,0
1539629466.594,24.902,23.926,23.926,31.738,0.977,0
1539629466.598,24.414,30.273,24.414,29.785,30.273,0
1539629466.602,20.020,39.062,21.973,26.367,41.016,0
1539629466.606,21.484,40.527,22.949,29.785,96.191,0
1539629466.610,29.297,33.691,27.344,31.738,35.156,0
1539629466.614,22.949,29.785,23.926,23.926,22.461,0
1539629466.617,20.508,29.785,20.508,23.438,48.828,0
1539629466.621,21.484,26.855,27.832,31.250,37.598,0
1539629466.625,20.020,22.461,24.902,22.949,72.266,0
1539629466.629,28.809,24.414,25.879,24.414,62.988,0
1539629466.633,33.203,30.273,34.668,39.062,65.918,0
1539629466.637,36.621,31.250,30.762,38.086,37.109,0
1539629466.641,36.133,40.527,26.855,27.832,14.648,0
1539629466.645,22.949,39.062,28.320,25.879,65.430,0
1539629466.649,27.832,26.367,29.297,24.414,32.715,0
1539629466.653,35.156,23.926,22.461,31.738,11.719,0
1539629466.657,31.250,28.320,23.926,33.203,23.438,0
1539629466.660,26.367,33.203,29.297,29.785,44.922,0
1539629466.664,23.438,20.996,29.785,21.973,35.156,0
1539629466.668,20.508,19.531,27.832,17.578,33.691,0
1539629466.672,31.250,30.762,30.273,26.855,62.012,0
1539629466.676,39.551,29.297,28.320,25.879,48.340,0
1539629466.680,35.156,27.832,24.902,24.902,-48.828,0
1539629466.684,38.574,29.297,25.391,20.020,-58.105,0
1539629466.688,36.133,32.715,15.625,14.160,58.105,0
1539629466.692,26.367,36.621,15.625,19.043,44.434,0
1539629466.696,25.879,33.691,20.020,21.973,13.184,0
1539629466.699,26.855,36.133,21.484,18.066,40.527,0
1539629466.703,29.785,36.133,24.902,13.672,16.113,0
1539629466.707,31.250,24.902,29.297,21.973,28.320,0
1539629466.711,21.484,25.391,25.391,24.902,54.199,0
1539629466.715,24.902,26.855,26.367,21.973,41.504,0
1539629466.719,28.809,29.785,25.879,19.531,26.367,0
1539629466.723,22.461,29.785,20.020,18.066,-7.324,0
1539629466.727,20.508,29.297,23.926,22.461,47.852,0
1539629466.731,32.715,32.715,21.973,31.738,8.789,0
1539629466.735,41.504,35.156,22.461,37.598,10.254,0
1539629466.739,29.785,30.762,34.668,33.691,54.688,0
1539629466.742,12.207,20.996,38.086,29.785,27.344,0
1539629466.746,10.742,20.508,38.086,34.180,-13.672,0
1539629466.750,12.207,21.973,37.109,33.203,32.715,0
1539629466.754,11.719,19.043,32.715,32.227,28.320,0
1539629466.758,9.277,25.879,34.668,29.297,-5.371,0
1539629466.762,10.742,37.109,38.574,22.949,-6.348,0
1539629466.766,19.531,30.273,37.598,27.344,-11.230,0
1539629466.770,25.391,26.855,31.738,29.297,27.344,0
1539629466.774,26.367,24.902,29.785,23.926,-5.371,0
1539629466.778,22.949,23.438,34.668,34.180,6.836,0
1539629466.782,23.926,31.250,34.668,39.062,74.707,0
1539629466.785,24.414,32.715,37.109,34.180,71.289,0
1539629466.789,21.484,28.320,35.645,25.391,53.223,0
1539629466.793,21.973,28.320,32.715,35.645,22.461,0
1539629466.797,31.250,29.785,34.180,41.504,40.527,0
1539629466.801,27.832,31.250,31.738,29.297,89.355,1
1539629466.805,20.508,27.832,30.762,27.344,104.004,0
1539629466.809,21.973,20.508,35.645,22.461,114.258,0
1539629466.813,26.855,30.762,30.273,28.320,118.652,0
1539629466.817,20.996,36.621,16.602,33.691,45.898,0
1539629466.821,19.043,28.320,20.996,28.320,7.812,0
1539629466.824,25.879,26.855,27.832,31.250,66.406,0
1539629466.828,28.809,32.715,28.320,30.273,72.266,0
1539629466.832,32.715,33.691,33.203,30.762,60.059,0
1539629466.836,35.645,23.438,39.551,32.227,96.191,0
1539629466.840,37.109,23.438,36.133,29.785,86.914,0
1539629466.844,23.926,38.086,29.297,36.621,26.855,0
1539629466.848,23.926,38.086,32.227,41.016,64.453,0
1539629466.852,36.621,27.832,32.715,37.109,47.852,0
1539629466.856,30.762,31.250,34.180,38.574,47.852,0
1539629466.860,32.227,36.133,33.691,40.039,63.965,0
1539629466.864,37.109,37.598,27.344,38.086,51.758,0
1539629466.867,32.227,27.832,28.320,38.574,57.129,0
1539629466.871,31.738,29.785,27.832,35.645,24.414,0
1539629466.875,26.855,40.039,24.902,34.668,28.320,0
1539629466.879,16.602,39.551,31.250,30.762,-19.531,0
1539629466.883,23.926,38.086,35.156,35.645,-24.414,0
1539629466.887,29.297,38.086,31.738,42.480,38.086,0
1539629466.891,23.438,33.691,27.344,32.715,41.992,0
1539629466.895,33.691,26.367,27.832,27.344,0.000,0
1539629466.899,31.250,37.109,26.855,32.227,41.992,0
1539629466.903,16.602,43.945,26.367,28.320,105.469,0
1539629466.907,18.066,38.574,29.297,32.227,33.691,0
1539629466.910,26.367,32.227,29.785,40.039,31.738,0
1539629466.914,32.715,25.391,32.227,36.621,69.336,0
1539629466.918,24.902,18.555,31.250,31.250,76.172,0
1539629466.922,27.832,30.762,22.461,31.250,103.027,0
1539629466.926,25.391,34.180,16.602,26.855,87.402,0
1539629466.930,20.020,21.484,25.879,27.832,56.152,0
1539629466.934,23.926,24.414,35.645,26.855,37.109,0
1539629466.938,25.391,30.762,33.203,21.484,39.551,0
1539629466.942,22.461,39.551,26.367,21.973,42.969,0
1539629466.946,18.555,39.551,26.855,22.949,41.016,0
1539629466.949,20.996,28.320,28.320,32.715,37.598,0
1539629466.953,30.273,30.762,22.461,35.645,62.988,0
1539629466.957,36.621,33.203,20.508,28.320,25.879,0
1539629466.961,34.180,29.297,25.879,23.438,-25.879,0
1539629466.965,38.574,25.879,30.273,31.250,-11.230,0
1539629466.969,37.598,20.020,33.691,42.480,-0.488,0
1539629466.973,30.273,25.391,34.668,43.945,10.742,0
1539629466.977,33.203,31.250,34.668,44.434,20.020,0
1539629466.981,37.598,31.250,26.855,44.434,1.953,0
1539629466.985,38.574,30.273,21.973,43.945,34.180,0
1539629466.989,32.227,35.645,31.738,41.992,75.195,0
1539629466.992,31.738,38.086,32.715,30.273,42.969,0
1539629466.996,35.645,31.250,31.738,24.414,13.672,0
1539629467.000,32.715,29.297,33.691,27.832,43.457,0
1539629467.004,29.785,33.691,33.691,30.762,70.801,0
1539629467.008,30.273,36.133,33.203,31.250,32.715,0
1539629467.012,33.203,39.062,31.738,35.156,-0.488,0
1539629467.016,31.738,41.504,20.020,36.621,45.898,0
1539629467.020,27.344,39.062,17.090,34.668,107.910,0
1539629467.024,27.344,31.738,34.668,35.645,85.449,0
1539629467.028,30.762,31.250,34.180,35.645,20.020,0
1539629467.032,35.156,33.691,29.785,35.645,-53.711,0
1539629467.035,31.250,30.273,32.715,27.832,-35.645,0
1539629467.039,32.227,30.762,29.297,26.855,24.902,0
1539629467.043,28.320,35.645,26.855,27.832,14.160,0
1539629467.047,14.160,43.457,25.391,27.344,10.254,0
1539629467.051,18.066,32.227,29.297,30.762,10.742,0
1539629467.055,26.367,21.973,36.621,31.738,51.270,0
1539629467.059,31.250,30.273,36.621,34.180,63.965,0
1539629467.063,20.508,37.109,30.273,26.367,36.621,0
1539629467.067,18.066,38.086,26.855,20.996,66.895,0
1539629467.071,27.832,33.203,27.832,25.879,77.637,0
1539629467.074,26.367,37.109,29.785,29.297,67.871,0
1539629467.078,28.320,40.527,21.484,29.297,48.828,0
1539629467.082,24.902,30.762,21.484,27.832,25.391,0
1539629467.086,19.043,27.344,30.273,26.367,3.906,0
1539629467.090,28.320,25.391,31.738,35.156,-14.648,0
1539629467.094,41.992,28.809,30.762,44.922,10.254,0
1539629467.098,33.203,40.039,22.461,25.879,35.156,0
1539629467.102,20.996,43.457,17.090,0.977,-3.906,0
1539629467.106,30.762,41.504,19.043,19.531,14.648,0
1539629467.110,45.898,43.457,16.113,33.691,77.637,0
1539629467.114,51.758,48.828,15.625,33.691,69.824,0
1539629467.117,50.781,42.969,20.508,47.852,9.277,0
1539629467.121,34.180,39.062,20.996,36.133,-17.090,0
1539629467.125,30.762,38.086,20.508,23.926,52.734,0
1539629467.129,39.062,30.273,24.902,33.691,46.875,0
1539629467.133,37.598,27.344,31.250,27.344,16.113,0
1539629467.137,32.227,32.227,32.227,20.020,88.867,0
1539629467.141,36.133,40.039,23.926,30.273,48.828,0
1539629467.145,38.574,38.574,21.484,38.086,-16.602,0
1539629467.149,40.039,30.762,24.902,34.180,-5.371,0
1539629467.153,41.504,29.785,24.902,37.109,20.020,0
1539629467.157,44.434,27.344,22.949,30.273,43.457,0
1539629467.160,43.945,33.691,22.461,27.832,47.363,0
1539629467.164,36.621,44.922,30.762,31.250,90.332,0
1539629467.168,41.016,37.109,26.855,21.484,56.152,0
1539629467.172,44.434,32.227,13.184,25.879,39.551,0
1539629467.176,33.691,37.109,12.207,28.809,53.711,0
1539629467.180,38.086,36.621,17.090,30.273,9.766,0
1539629467.184,52.734,39.551,21.973,37.109,83.984,0
1539629467.188,53.223,38.086,21.973,36.621,85.938,0
1539629467.192,42.480,33.691,18.066,39.551,-9.277,0
1539629467.196,34.180,32.227,17.578,35.156,16.113,0
1539629467.199,41.992,36.621,18.555,32.227,3.906,0
1539629467.203,45.898,36.621,23.438,37.109,-19.531,0
1539629467.207,39.551,29.785,22.949,38.574,67.871,0
1539629467.211,44.922,30.762,20.508,40.039,100.586,0
1539629467.215,44.434,36.621,26.367,35.156,62.988,0
1539629467.219,44.922,39.062,20.508,37.598,1.465,0
1539629467.223,33.203,37.598,18.555,38.574,7.812,0
1539629467.227,23.926,33.691,24.414,32.227,27.344,0
1539629467.231,29.785,34.668,24.414,26.855,20.508,0
1539629467.235,30.762,27.344,24.902,26.855,64.941,0
1539629467.239,25.391,22.949,27.832,25.391,24.902,0
1539629467.242,17.090,19.043,33.691,21.484,0.000,0
1539629467.246,27.832,16.602,33.691,35.156,66.406,0
1539629467.250,27.832,22.461,22.949,41.992,62.988,0
1539629467.254,14.648,23.438,21.484,23.926,22.949,0
1539629467.258,27.344,32.227,30.762,22.461,29.785,0
1539629467.262,25.391,31.738,27.832,27.832,8.789,0
1539629467.266,22.461,26.855,24.414,27.344,-23.926,0
1539629467.270,27.832,30.762,27.832,29.297,11.719,0
1539629467.274,38.574,32.227,29.297,29.297,38.086,0
1539629467.278,38.574,30.273,24.902,32.227,3.418,0
1539629467.282,21.973,29.785,24.902,38.086,37.598,0
1539629467.285,23.926,21.973,19.043,31.738,27.344,0
1539629467.289,30.273,27.344,12.207,17.090,0.488,0
1539629467.293,26.367,30.762,13.672,20.996,52.734,0
1539629467.297,21.973,27.832,17.578,28.809,59.082,0
1539629467.301,23.926,37.109,25.879,21.973,73.242,0
1539629467.305,20.996,30.762,24.414,17.578,47.363,0
1539629467.309,21.484,18.555,24.902,28.809,33.203,0
1539629467.313,30.762,16.113,25.879,34.180,93.262,0
1539629467.317,37.598,32.227,19.043,36.133,105.957,0
1539629467.321,40.039,36.621,28.320,41.504,107.910,0
1539629467.324,34.180,23.926,27.344,34.668,32.715,0
1539629467.328,22.949,22.461,17.578,32.227,28.809,0
1539629467.332,29.297,23.926,23.926,36.621,74.219,0
1539629467.336,36.133,26.367,27.344,32.715,33.691,0
1539629467.340,37.598,36.133,25.879,29.297,-3.418,0
1539629467.344,43.457,42.480,24.902,22.461,-13.184,0
1539629467.348,32.715,41.504,18.066,15.625,-5.371,0
1539629467.352,19.043,41.992,24.414,21.484,37.109,0
1539629467.356,17.578,34.180,29.297,20.996,40.039,0
1539629467.360,17.090,20.508,23.438,16.113,34.668,0
1539629467.364,15.625,27.344,24.902,14.160,37.109,0
1539629467.367,19.531,32.715,22.461,16.602,42.480,0
1539629467.371,24.902,31.738,24.414,22.461,37.598,0
1539629467.375,22.949,34.180,25.391,25.879,32.227,0
1539629467.379,17.090,32.715,20.020,22.949,64.941,0
1539629467.383,25.879,37.109,20.996,24.902,51.758,0
1539629467.387,31.738,37.598,29.785,31.250,44.434,0
1539629467.391,17.578,28.809,30.762,28.809,13.184,0
1539629467.395,16.602,30.273,24.414,22.461,13.184,0
1539629467.399,23.926,23.926,22.461,24.414,56.641,0
1539629467.403,26.367,20.020,23.926,29.785,41.504,0
1539629467.407,26.855,30.762,27.832,25.391,34.180,0
1539629467.410,22.461,37.598,28.320,24.902,65.430,0
1539629467.414,15.625,37.109,25.391,25.391,69.824,0
1539629467.418,26.855,31.250,27.832,23.926,16.602,0
1539629467.422,38.086,32.227,27.832,27.344,48.340,0
1539629467.426,31.250,27.832,22.461,28.809,64.941,0
1539629467.430,20.996,22.949,14.648,29.785,-2.441,0
1539629467.434,20.508,28.809,17.090,29.297,31.738,0
1539629467.438,18.066,30.273,24.902,22.949,32.227,0
1539629467.442,23.438,27.832,28.320,29.297,17.578,0
1539629467.446,26.367,33.203,28.320,35.645,71.289,0
1539629467.449,20.996,29.297,23.438,31.738,57.129,0
1539629467.453,32.715,18.555,26.367,39.551,31.738,0
1539629467.457,31.738,29.297,31.738,28.809,29.785,0
1539629467.461,34.180,30.273,32.715,26.367,70.312,0
1539629467.465,27.344,12.695,26.855,33.203,64.453,0
1539629467.469,23.438,19.043,25.879,30.273,64.941,0
1539629467.473,25.391,33.691,28.809,29.785,58.105,0
1539629467.477,22.461,36.133,26.855,25.391,-9.277,0
1539629467.481,23.926,35.645,31.250,29.297,9.277,0
1539629467.485,33.203,37.598,27.344,27.832,29.785,0
1539629467.489,35.645,36.621,16.602,22.461,20.508,0
1539629467.492,24.902,34.180,26.855,25.879,6.348,0
1539629467.496,20.020,27.832,33.691,22.949,9.277,0
1539629467.500,17.090,27.344,24.902,25.391,30.273,0
1539629467.504,10.742,24.902,25.879,28.809,50.293,0
1539629467.508,14.648,15.137,27.832,20.020,77.148,0
1539629467.512,25.391,19.043,24.414,22.461,62.500,0
1539629467.516,27.344,38.086,22.949,26.855,-6.348,0
1539629467.520,17.090,45.410,25.879,28.809,34.180,0
1539629467.524,15.137,30.762,26.367,29.297,90.332,0
1539629467.528,17.090,28.809,24.902,33.203,47.363,0
1539629467.532,14.160,37.598,28.809,37.598,57.129,0
1539629467.535,17.090,33.203,29.785,34.180,50.293,0
1539629467.539,30.273,25.879,27.344,26.367,11.230,0
1539629467.543,25.879,28.809,25.391,14.160,30.273,0
1539629467.547,13.672,34.180,30.762,13.672,35.645,0
1539629467.551,18.555,33.203,32.227,26.855,33.203,0
1539629467.555,22.461,28.809,26.367,27.344,11.719,0
1539629467.559,33.691,37.109,24.414,22.949,45.898,0
1539629467.563,24.902,41.016,23.926,31.250,64.941,0
1539629467.567,17.578,25.879,29.297,33.203,28.320,0
1539629467.571,20.508,28.809,30.762,33.691,32.227,0
1539629467.574,20.996,38.574,23.926,28.320,36.621,0
1539629467.578,14.160,25.391,24.902,26.855,10.742,0
1539629467.582,20.508,20.996,27.344,37.109,16.602,0
1539629467.586,33.691,28.809,25.391,38.574,23.438,0
1539629467.590,22.949,32.227,23.438,26.367,-2.441,0
1539629467.594,20.020,31.738,27.832,18.555,13.672,0
1539629467.598,27.344,32.227,27.832,26.367,5.859,0
1539629467.602,29.297,33.691,21.484,35.156,45.410,0
1539629467.606,41.504,30.273,22.949,39.062,81.055,0
1539629467.610,52.246,25.879,22.949,47.363,59.570,0
1539629467.614,44.922,23.926,21.973,45.898,21.973,0
1539629467.617,48.340,27.832,28.320,50.781,6.836,0
1539629467.621,52.734,36.133,28.320,56.152,-15.137,0
1539629467.625,41.016,34.668,21.484,48.340,-23.926,0
1539629467.629,48.828,31.250,24.414,56.641,34.180,0
1539629467.633,61.035,33.203,32.715,60.059,49.805,0
1539629467.637,65.918,26.367,33.691,52.246,15.137,0
1539629467.641,63.965,26.855,30.273,53.711,11.230,0
1539629467.645,58.594,38.086,30.273,58.105,12.207,0
1539629467.649,46.387,33.691,21.973,50.781,0.977,0
1539629467.653,45.410,23.438,20.020,55.664,23.926,0
1539629467.657,55.664,27.344,30.273,63.965,69.824,0
1539629467.660,59.570,32.715,31.250,63.477,41.016,0
1539629467.664,49.805,32.715,31.250,62.012,4.395,0
1539629467.668,47.363,35.156,30.762,63.965,32.715,0
1539629467.672,52.734,29.297,27.832,55.664,37.598,0
1539629467.676,47.363,29.785,26.367,53.223,16.602,0
1539629467.680,50.293,25.879,26.367,54.199,17.090,0
1539629467.684,52.734,15.625,25.879,53.223,29.297,0
1539629467.688,46.875,20.508,29.785,48.828,14.160,0
1539629467.692,45.898,29.297,32.227,44.434,10.254,0
1539629467.696,41.504,36.133,31.738,47.852,23.438,0
1539629467.699,34.180,33.691,30.762,51.270,20.508,0
1539629467.703,41.016,33.203,32.227,51.758,-7.812,0
1539629467.707,43.945,38.086,28.809,49.805,1.953,0
1539629467.711,45.898,33.203,26.367,46.875,8.301,0
1539629467.715,45.898,24.902,25.879,45.410,2.441,0
1539629467.719,38.574,22.949,19.043,39.062,59.082,0
1539629467.723,41.992,28.320,18.555,35.645,33.203,0
1539629467.727,40.039,36.621,30.273,45.898,24.414,0
1539629467.731,23.438,27.832,33.203,43.457,78.613,0
1539629467.735,31.250,22.461,29.297,40.527,32.715,0
1539629467.739,36.621,31.738,25.879,40.527,-12.207,0
1539629467.742,30.762,31.250,21.484,41.016,8.789,0
1539629467.746,26.855,33.691,19.043,39.551,-13.184,0
1539629467.750,37.109,34.668,26.367,35.156,-5.859,0
1539629467.754,47.852,36.133,21.973,36.621,29.785,0
1539629467.758,44.922,41.504,14.648,40.527,-38.574,0
1539629467.762,30.273,38.086,27.832,44.434,-71.777,0
1539629467.766,31.250,37.598,34.180,36.133,-10.742,0
1539629467.770,37.598,27.832,27.344,28.809,7.812,0
1539629467.774,43.945,30.273,23.926,35.156,44.922,0
1539629467.778,41.016,33.691,24.414,35.156,17.578,0
1539629467.782,36.133,31.250,22.949,32.227,-2.930,0
1539629467.785,42.969,41.992,23.438,36.133,39.062,0
1539629467.789,42.480,43.945,16.602,37.109,69.336,0
1539629467.793,44.922,41.992,11.719,34.180,19.531,0
1539629467.797,43.457,40.039,25.391,33.203,-18.555,0
1539629467.801,39.062,40.039,32.227,31.738,29.297,0
1539629467.805,35.156,38.086,26.855,23.926,-20.020,0
1539629467.809,33.203,32.715,20.020,23.926,-1.465,0
1539629467.813,31.738,39.551,21.484,34.180,18.555,0
1539629467.817,31.738,42.969,23.438,31.250,-5.371,0
1539629467.821,38.574,38.086,20.508,31.738,4.883,0
1539629467.824,41.992,36.621,20.996,34.180,-1.953,0
1539629467.828,40.039,38.086,24.414,39.551,-11.230,0
1539629467.832,32.715,36.621,22.461,37.598,16.113,0
1539629467.836,36.621,31.250,21.973,31.250,23.438,0
1539629467.840,41.504,37.109,31.250,35.156,-27.344,0
1539629467.844,37.598,46.875,29.785,29.785,3.906,0
1539629467.848,32.227,37.109,24.414,31.250,39.062,0
1539629467.852,31.250,28.320,22.949,33.203,45.898,0
1539629467.856,34.668,35.156,27.344,34.668,41.992,0
1539629467.860,42.969,35.156,27.832,38.574,23.926,0
1539629467.864,32.715,35.645,21.973,33.691,66.895,0
1539629467.867,32.227,31.738,25.879,30.762,50.293,0
